#,Time(ms),CH1(mV)
0,0.2000000,60.00
1,0.1996000,20.00
2,0.1992000,60.00
3,0.1988000,20.00
4,0.1984000,60.00
5,0.1980000,20.00
6,0.1976000,60.00
7,0.1972000,20.00
8,0.1968000,60.00
9,0.1964000,20.00
10,0.1960000,60.00
11,0.1956000,20.00
12,0.1952000,60.00
13,0.1948000,20.00
14,0.1944000,60.00
15,0.1940000,20.00
16,0.1936000,60.00
17,0.1932000,20.00
18,0.1928000,60.00
19,0.1924000,40.00
20,0.1920000,60.00
21,0.1916000,20.00
22,0.1912000,60.00
23,0.1908000,20.00
24,0.1904000,60.00
25,0.1900000,20.00
26,0.1896000,60.00
27,0.1892000,20.00
28,0.1888000,60.00
29,0.1884000,20.00
30,0.1880000,60.00
31,0.1876000,40.00
32,0.1872000,60.00
33,0.1868000,20.00
34,0.1864000,60.00
35,0.1860000,20.00
36,0.1856000,60.00
37,0.1852000,20.00
38,0.1848000,60.00
39,0.1844000,20.00
40,0.1840000,60.00
41,0.1836000,40.00
42,0.1832000,60.00
43,0.1828000,20.00
44,0.1824000,60.00
45,0.1820000,20.00
46,0.1816000,60.00
47,0.1812000,20.00
48,0.1808000,60.00
49,0.1804000,20.00
50,0.1800000,60.00
51,0.1796000,20.00
52,0.1792000,60.00
53,0.1788000,20.00
54,0.1784000,80.00
55,0.1780000,20.00
56,0.1776000,60.00
57,0.1772000,20.00
58,0.1768000,60.00
59,0.1764000,20.00
60,0.1760000,60.00
61,0.1756000,20.00
62,0.1752000,60.00
63,0.1748000,0.00
64,0.1744000,60.00
65,0.1740000,20.00
66,0.1736000,60.00
67,0.1732000,20.00
68,0.1728000,60.00
69,0.1724000,20.00
70,0.1720000,60.00
71,0.1716000,20.00
72,0.1712000,60.00
73,0.1708000,20.00
74,0.1704000,60.00
75,0.1700000,20.00
76,0.1696000,60.00
77,0.1692000,20.00
78,0.1688000,60.00
79,0.1684000,20.00
80,0.1680000,60.00
81,0.1676000,20.00
82,0.1672000,60.00
83,0.1668000,20.00
84,0.1664000,60.00
85,0.1660000,20.00
86,0.1656000,60.00
87,0.1652000,20.00
88,0.1648000,60.00
89,0.1644000,20.00
90,0.1640000,60.00
91,0.1636000,20.00
92,0.1632000,60.00
93,0.1628000,20.00
94,0.1624000,60.00
95,0.1620000,20.00
96,0.1616000,60.00
97,0.1612000,20.00
98,0.1608000,60.00
99,0.1604000,20.00
100,0.1600000,60.00
101,0.1596000,20.00
102,0.1592000,60.00
103,0.1588000,20.00
104,0.1584000,60.00
105,0.1580000,20.00
106,0.1576000,60.00
107,0.1572000,20.00
108,0.1568000,60.00
109,0.1564000,20.00
110,0.1560000,60.00
111,0.1556000,20.00
112,0.1552000,60.00
113,0.1548000,20.00
114,0.1544000,60.00
115,0.1540000,20.00
116,0.1536000,60.00
117,0.1532000,20.00
118,0.1528000,60.00
119,0.1524000,40.00
120,0.1520000,60.00
121,0.1516000,20.00
122,0.1512000,60.00
123,0.1508000,20.00
124,0.1504000,60.00
125,0.1500000,20.00
126,0.1496000,60.00
127,0.1492000,20.00
128,0.1488000,60.00
129,0.1484000,40.00
130,0.1480000,60.00
131,0.1476000,20.00
132,0.1472000,60.00
133,0.1468000,20.00
134,0.1464000,60.00
135,0.1460000,20.00
136,0.1456000,60.00
137,0.1452000,20.00
138,0.1448000,60.00
139,0.1444000,20.00
140,0.1440000,60.00
141,0.1436000,20.00
142,0.1432000,60.00
143,0.1428000,20.00
144,0.1424000,60.00
145,0.1420000,20.00
146,0.1416000,60.00
147,0.1412000,20.00
148,0.1408000,60.00
149,0.1404000,20.00
150,0.1400000,60.00
151,0.1396000,20.00
152,0.1392000,60.00
153,0.1388000,20.00
154,0.1384000,60.00
155,0.1380000,20.00
156,0.1376000,80.00
157,0.1372000,0.00
158,0.1368000,60.00
159,0.1364000,20.00
160,0.1360000,60.00
161,0.1356000,20.00
162,0.1352000,60.00
163,0.1348000,20.00
164,0.1344000,60.00
165,0.1340000,20.00
166,0.1336000,60.00
167,0.1332000,20.00
168,0.1328000,80.00
169,0.1324000,20.00
170,0.1320000,60.00
171,0.1316000,20.00
172,0.1312000,60.00
173,0.1308000,20.00
174,0.1304000,60.00
175,0.1300000,20.00
176,0.1296000,60.00
177,0.1292000,0.00
178,0.1288000,60.00
179,0.1284000,20.00
180,0.1280000,60.00
181,0.1276000,20.00
182,0.1272000,60.00
183,0.1268000,20.00
184,0.1264000,60.00
185,0.1260000,40.00
186,0.1256000,60.00
187,0.1252000,40.00
188,0.1248000,60.00
189,0.1244000,20.00
190,0.1240000,60.00
191,0.1236000,20.00
192,0.1232000,60.00
193,0.1228000,20.00
194,0.1224000,60.00
195,0.1220000,20.00
196,0.1216000,60.00
197,0.1212000,20.00
198,0.1208000,60.00
199,0.1204000,0.00
200,0.1200000,60.00
201,0.1196000,20.00
202,0.1192000,60.00
203,0.1188000,20.00
204,0.1184000,60.00
205,0.1180000,20.00
206,0.1176000,60.00
207,0.1172000,20.00
208,0.1168000,60.00
209,0.1164000,40.00
210,0.1160000,60.00
211,0.1156000,20.00
212,0.1152000,60.00
213,0.1148000,20.00
214,0.1144000,60.00
215,0.1140000,20.00
216,0.1136000,60.00
217,0.1132000,20.00
218,0.1128000,60.00
219,0.1124000,0.00
220,0.1120000,60.00
221,0.1116000,20.00
222,0.1112000,60.00
223,0.1108000,20.00
224,0.1104000,60.00
225,0.1100000,20.00
226,0.1096000,60.00
227,0.1092000,20.00
228,0.1088000,60.00
229,0.1084000,20.00
230,0.1080000,60.00
231,0.1076000,20.00
232,0.1072000,60.00
233,0.1068000,20.00
234,0.1064000,60.00
235,0.1060000,20.00
236,0.1056000,60.00
237,0.1052000,20.00
238,0.1048000,60.00
239,0.1044000,20.00
240,0.1040000,60.00
241,0.1036000,20.00
242,0.1032000,60.00
243,0.1028000,20.00
244,0.1024000,60.00
245,0.1020000,20.00
246,0.1016000,60.00
247,0.1012000,20.00
248,0.1008000,60.00
249,0.1004000,20.00
250,0.1000000,60.00
251,0.0996000,20.00
252,0.0992000,60.00
253,0.0988000,20.00
254,0.0984000,60.00
255,0.0980000,20.00
256,0.0976000,60.00
257,0.0972000,20.00
258,0.0968000,60.00
259,0.0964000,20.00
260,0.0960000,60.00
261,0.0956000,20.00
262,0.0952000,60.00
263,0.0948000,20.00
264,0.0944000,60.00
265,0.0940000,20.00
266,0.0936000,60.00
267,0.0932000,20.00
268,0.0928000,60.00
269,0.0924000,20.00
270,0.0920000,60.00
271,0.0916000,20.00
272,0.0912000,60.00
273,0.0908000,20.00
274,0.0904000,60.00
275,0.0900000,20.00
276,0.0896000,60.00
277,0.0892000,20.00
278,0.0888000,60.00
279,0.0884000,20.00
280,0.0880000,60.00
281,0.0876000,20.00
282,0.0872000,60.00
283,0.0868000,20.00
284,0.0864000,60.00
285,0.0860000,20.00
286,0.0856000,60.00
287,0.0852000,20.00
288,0.0848000,60.00
289,0.0844000,40.00
290,0.0840000,60.00
291,0.0836000,40.00
292,0.0832000,60.00
293,0.0828000,20.00
294,0.0824000,60.00
295,0.0820000,20.00
296,0.0816000,60.00
297,0.0812000,20.00
298,0.0808000,60.00
299,0.0804000,20.00
300,0.0800000,60.00
301,0.0796000,20.00
302,0.0792000,60.00
303,0.0788000,20.00
304,0.0784000,60.00
305,0.0780000,20.00
306,0.0776000,60.00
307,0.0772000,20.00
308,0.0768000,60.00
309,0.0764000,20.00
310,0.0760000,60.00
311,0.0756000,20.00
312,0.0752000,60.00
313,0.0748000,20.00
314,0.0744000,60.00
315,0.0740000,20.00
316,0.0736000,60.00
317,0.0732000,40.00
318,0.0728000,60.00
319,0.0724000,20.00
320,0.0720000,60.00
321,0.0716000,20.00
322,0.0712000,60.00
323,0.0708000,20.00
324,0.0704000,60.00
325,0.0700000,20.00
326,0.0696000,60.00
327,0.0692000,20.00
328,0.0688000,60.00
329,0.0684000,40.00
330,0.0680000,60.00
331,0.0676000,20.00
332,0.0672000,60.00
333,0.0668000,20.00
334,0.0664000,60.00
335,0.0660000,20.00
336,0.0656000,60.00
337,0.0652000,20.00
338,0.0648000,80.00
339,0.0644000,20.00
340,0.0640000,60.00
341,0.0636000,20.00
342,0.0632000,80.00
343,0.0628000,20.00
344,0.0624000,60.00
345,0.0620000,20.00
346,0.0616000,60.00
347,0.0612000,20.00
348,0.0608000,60.00
349,0.0604000,20.00
350,0.0600000,60.00
351,0.0596000,20.00
352,0.0592000,60.00
353,0.0588000,20.00
354,0.0584000,60.00
355,0.0580000,20.00
356,0.0576000,60.00
357,0.0572000,20.00
358,0.0568000,60.00
359,0.0564000,20.00
360,0.0560000,60.00
361,0.0556000,20.00
362,0.0552000,60.00
363,0.0548000,20.00
364,0.0544000,60.00
365,0.0540000,20.00
366,0.0536000,60.00
367,0.0532000,20.00
368,0.0528000,60.00
369,0.0524000,20.00
370,0.0520000,60.00
371,0.0516000,20.00
372,0.0512000,60.00
373,0.0508000,40.00
374,0.0504000,60.00
375,0.0500000,20.00
376,0.0496000,60.00
377,0.0492000,20.00
378,0.0488000,60.00
379,0.0484000,20.00
380,0.0480000,60.00
381,0.0476000,20.00
382,0.0472000,60.00
383,0.0468000,20.00
384,0.0464000,60.00
385,0.0460000,20.00
386,0.0456000,60.00
387,0.0452000,20.00
388,0.0448000,60.00
389,0.0444000,20.00
390,0.0440000,60.00
391,0.0436000,20.00
392,0.0432000,60.00
393,0.0428000,20.00
394,0.0424000,60.00
395,0.0420000,20.00
396,0.0416000,60.00
397,0.0412000,20.00
398,0.0408000,60.00
399,0.0404000,20.00
400,0.0400000,60.00
401,0.0396000,20.00
402,0.0392000,60.00
403,0.0388000,20.00
404,0.0384000,60.00
405,0.0380000,20.00
406,0.0376000,60.00
407,0.0372000,20.00
408,0.0368000,60.00
409,0.0364000,20.00
410,0.0360000,60.00
411,0.0356000,20.00
412,0.0352000,60.00
413,0.0348000,20.00
414,0.0344000,60.00
415,0.0340000,20.00
416,0.0336000,60.00
417,0.0332000,20.00
418,0.0328000,60.00
419,0.0324000,20.00
420,0.0320000,60.00
421,0.0316000,20.00
422,0.0312000,60.00
423,0.0308000,20.00
424,0.0304000,60.00
425,0.0300000,20.00
426,0.0296000,60.00
427,0.0292000,20.00
428,0.0288000,60.00
429,0.0284000,20.00
430,0.0280000,60.00
431,0.0276000,20.00
432,0.0272000,60.00
433,0.0268000,20.00
434,0.0264000,60.00
435,0.0260000,20.00
436,0.0256000,60.00
437,0.0252000,20.00
438,0.0248000,60.00
439,0.0244000,20.00
440,0.0240000,60.00
441,0.0236000,20.00
442,0.0232000,60.00
443,0.0228000,20.00
444,0.0224000,60.00
445,0.0220000,20.00
446,0.0216000,60.00
447,0.0212000,20.00
448,0.0208000,60.00
449,0.0204000,20.00
450,0.0200000,60.00
451,0.0196000,20.00
452,0.0192000,60.00
453,0.0188000,40.00
454,0.0184000,60.00
455,0.0180000,20.00
456,0.0176000,60.00
457,0.0172000,20.00
458,0.0168000,60.00
459,0.0164000,20.00
460,0.0160000,60.00
461,0.0156000,40.00
462,0.0152000,60.00
463,0.0148000,20.00
464,0.0144000,60.00
465,0.0140000,20.00
466,0.0136000,60.00
467,0.0132000,40.00
468,0.0128000,60.00
469,0.0124000,40.00
470,0.0120000,60.00
471,0.0116000,40.00
472,0.0112000,60.00
473,0.0108000,20.00
474,0.0104000,80.00
475,0.0100000,40.00
476,0.0096000,80.00
477,0.0092000,0.00
478,0.0088000,80.00
479,0.0084000,40.00
480,0.0080000,60.00
481,0.0076000,40.00
482,0.0072000,80.00
483,0.0068000,60.00
484,0.0064000,80.00
485,0.0060000,60.00
486,0.0056000,100.00
487,0.0052000,60.00
488,0.0048000,100.00
489,0.0044000,60.00
490,0.0040000,100.00
491,0.0036000,80.00
492,0.0032000,120.00
493,0.0028000,80.00
494,0.0024000,120.00
495,0.0020000,100.00
496,0.0016000,140.00
497,0.0012000,100.00
498,0.0008000,140.00
499,0.0004000,120.00
500,0.0000000,160.00
501,-0.0004000,140.00
502,-0.0008000,180.00
503,-0.0012000,140.00
504,-0.0016000,200.00
505,-0.0020000,160.00
506,-0.0024000,200.00
507,-0.0028000,180.00
508,-0.0032000,220.00
509,-0.0036000,200.00
510,-0.0040000,240.00
511,-0.0044000,220.00
512,-0.0048000,280.00
513,-0.0052000,240.00
514,-0.0056000,280.00
515,-0.0060000,260.00
516,-0.0064000,320.00
517,-0.0068000,280.00
518,-0.0072000,320.00
519,-0.0076000,300.00
520,-0.0080000,340.00
521,-0.0084000,320.00
522,-0.0088000,380.00
523,-0.0092000,340.00
524,-0.0096000,380.00
525,-0.0100000,360.00
526,-0.0104000,400.00
527,-0.0108000,380.00
528,-0.0112000,420.00
529,-0.0116000,380.00
530,-0.0120000,440.00
531,-0.0124000,400.00
532,-0.0128000,460.00
533,-0.0132000,420.00
534,-0.0136000,480.00
535,-0.0140000,440.00
536,-0.0144000,480.00
537,-0.0148000,460.00
538,-0.0152000,520.00
539,-0.0156000,480.00
540,-0.0160000,540.00
541,-0.0164000,480.00
542,-0.0168000,540.00
543,-0.0172000,520.00
544,-0.0176000,580.00
545,-0.0180000,540.00
546,-0.0184000,600.00
547,-0.0188000,560.00
548,-0.0192000,620.00
549,-0.0196000,580.00
550,-0.0200000,640.00
551,-0.0204000,600.00
552,-0.0208000,640.00
553,-0.0212000,620.00
554,-0.0216000,680.00
555,-0.0220000,640.00
556,-0.0224000,680.00
557,-0.0228000,640.00
558,-0.0232000,700.00
559,-0.0236000,660.00
560,-0.0240000,700.00
561,-0.0244000,680.00
562,-0.0248000,720.00
563,-0.0252000,700.00
564,-0.0256000,740.00
565,-0.0260000,720.00
566,-0.0264000,760.00
567,-0.0268000,720.00
568,-0.0272000,780.00
569,-0.0276000,760.00
570,-0.0280000,800.00
571,-0.0284000,780.00
572,-0.0288000,820.00
573,-0.0292000,800.00
574,-0.0296000,860.00
575,-0.0300000,820.00
576,-0.0304000,860.00
577,-0.0308000,840.00
578,-0.0312000,880.00
579,-0.0316000,860.00
580,-0.0320000,900.00
581,-0.0324000,860.00
582,-0.0328000,920.00
583,-0.0332000,880.00
584,-0.0336000,940.00
585,-0.0340000,900.00
586,-0.0344000,960.00
587,-0.0348000,920.00
588,-0.0352000,960.00
589,-0.0356000,940.00
590,-0.0360000,960.00
591,-0.0364000,960.00
592,-0.0368000,1000.00
593,-0.0372000,960.00
594,-0.0376000,1020.00
595,-0.0380000,980.00
596,-0.0384000,1020.00
597,-0.0388000,1000.00
598,-0.0392000,1040.00
599,-0.0396000,1000.00
600,-0.0400000,1040.00
601,-0.0404000,1020.00
602,-0.0408000,1080.00
603,-0.0412000,1020.00
604,-0.0416000,1080.00
605,-0.0420000,1040.00
606,-0.0424000,1080.00
607,-0.0428000,1040.00
608,-0.0432000,1080.00
609,-0.0436000,1060.00
610,-0.0440000,1100.00
611,-0.0444000,1080.00
612,-0.0448000,1120.00
613,-0.0452000,1080.00
614,-0.0456000,1120.00
615,-0.0460000,1100.00
616,-0.0464000,1160.00
617,-0.0468000,1120.00
618,-0.0472000,1180.00
619,-0.0476000,1120.00
620,-0.0480000,1180.00
621,-0.0484000,1140.00
622,-0.0488000,1180.00
623,-0.0492000,1160.00
624,-0.0496000,1180.00
625,-0.0500000,1180.00
626,-0.0504000,1200.00
627,-0.0508000,1180.00
628,-0.0512000,1220.00
629,-0.0516000,1180.00
630,-0.0520000,1240.00
631,-0.0524000,1180.00
632,-0.0528000,1240.00
633,-0.0532000,1200.00
634,-0.0536000,1240.00
635,-0.0540000,1220.00
636,-0.0544000,1260.00
637,-0.0548000,1240.00
638,-0.0552000,1280.00
639,-0.0556000,1240.00
640,-0.0560000,1280.00
641,-0.0564000,1240.00
642,-0.0568000,1280.00
643,-0.0572000,1240.00
644,-0.0576000,1280.00
645,-0.0580000,1240.00
646,-0.0584000,1280.00
647,-0.0588000,1260.00
648,-0.0592000,1300.00
649,-0.0596000,1260.00
650,-0.0600000,1300.00
651,-0.0604000,1280.00
652,-0.0608000,1320.00
653,-0.0612000,1280.00
654,-0.0616000,1320.00
655,-0.0620000,1280.00
656,-0.0624000,1320.00
657,-0.0628000,1280.00
658,-0.0632000,1340.00
659,-0.0636000,1280.00
660,-0.0640000,1340.00
661,-0.0644000,1280.00
662,-0.0648000,1340.00
663,-0.0652000,1300.00
664,-0.0656000,1340.00
665,-0.0660000,1300.00
666,-0.0664000,1340.00
667,-0.0668000,1300.00
668,-0.0672000,1340.00
669,-0.0676000,1320.00
670,-0.0680000,1360.00
671,-0.0684000,1320.00
672,-0.0688000,1360.00
673,-0.0692000,1320.00
674,-0.0696000,1360.00
675,-0.0700000,1340.00
676,-0.0704000,1360.00
677,-0.0708000,1340.00
678,-0.0712000,1380.00
679,-0.0716000,1340.00
680,-0.0720000,1380.00
681,-0.0724000,1340.00
682,-0.0728000,1380.00
683,-0.0732000,1340.00
684,-0.0736000,1400.00
685,-0.0740000,1360.00
686,-0.0744000,1400.00
687,-0.0748000,1360.00
688,-0.0752000,1420.00
689,-0.0756000,1360.00
690,-0.0760000,1420.00
691,-0.0764000,1380.00
692,-0.0768000,1420.00
693,-0.0772000,1380.00
694,-0.0776000,1420.00
695,-0.0780000,1380.00
696,-0.0784000,1440.00
697,-0.0788000,1380.00
698,-0.0792000,1420.00
699,-0.0796000,1400.00
700,-0.0800000,1440.00
701,-0.0804000,1400.00
702,-0.0808000,1440.00
703,-0.0812000,1400.00
704,-0.0816000,1440.00
705,-0.0820000,1400.00
706,-0.0824000,1440.00
707,-0.0828000,1420.00
708,-0.0832000,1440.00
709,-0.0836000,1400.00
710,-0.0840000,1440.00
711,-0.0844000,1420.00
712,-0.0848000,1440.00
713,-0.0852000,1420.00
714,-0.0856000,1460.00
715,-0.0860000,1420.00
716,-0.0864000,1480.00
717,-0.0868000,1440.00
718,-0.0872000,1480.00
719,-0.0876000,1440.00
720,-0.0880000,1480.00
721,-0.0884000,1440.00
722,-0.0888000,1480.00
723,-0.0892000,1440.00
724,-0.0896000,1500.00
725,-0.0900000,1440.00
726,-0.0904000,1480.00
727,-0.0908000,1440.00
728,-0.0912000,1480.00
729,-0.0916000,1440.00
730,-0.0920000,1480.00
731,-0.0924000,1440.00
732,-0.0928000,1500.00
733,-0.0932000,1460.00
734,-0.0936000,1500.00
735,-0.0940000,1460.00
736,-0.0944000,1500.00
737,-0.0948000,1460.00
738,-0.0952000,1500.00
739,-0.0956000,1460.00
740,-0.0960000,1500.00
741,-0.0964000,1440.00
742,-0.0968000,1520.00
743,-0.0972000,1460.00
744,-0.0976000,1520.00
745,-0.0980000,1480.00
746,-0.0984000,1520.00
747,-0.0988000,1480.00
748,-0.0992000,1520.00
749,-0.0996000,1480.00
750,-0.1000000,1520.00
751,-0.1004000,1500.00
752,-0.1008000,1520.00
753,-0.1012000,1500.00
754,-0.1016000,1520.00
755,-0.1020000,1500.00
756,-0.1024000,1520.00
757,-0.1028000,1480.00
758,-0.1032000,1540.00
759,-0.1036000,1500.00
760,-0.1040000,1540.00
761,-0.1044000,1500.00
762,-0.1048000,1540.00
763,-0.1052000,1500.00
764,-0.1056000,1540.00
765,-0.1060000,1520.00
766,-0.1064000,1560.00
767,-0.1068000,1520.00
768,-0.1072000,1560.00
769,-0.1076000,1520.00
770,-0.1080000,1560.00
771,-0.1084000,1520.00
772,-0.1088000,1560.00
773,-0.1092000,1520.00
774,-0.1096000,1560.00
775,-0.1100000,1520.00
776,-0.1104000,1560.00
777,-0.1108000,1520.00
778,-0.1112000,1580.00
779,-0.1116000,1520.00
780,-0.1120000,1560.00
781,-0.1124000,1540.00
782,-0.1128000,1580.00
783,-0.1132000,1540.00
784,-0.1136000,1580.00
785,-0.1140000,1540.00
786,-0.1144000,1580.00
787,-0.1148000,1520.00
788,-0.1152000,1580.00
789,-0.1156000,1540.00
790,-0.1160000,1580.00
791,-0.1164000,1560.00
792,-0.1168000,1600.00
793,-0.1172000,1560.00
794,-0.1176000,1600.00
795,-0.1180000,1560.00
796,-0.1184000,1600.00
797,-0.1188000,1560.00
798,-0.1192000,1600.00
799,-0.1196000,1560.00
800,-0.1200000,1600.00
801,-0.1204000,1560.00
802,-0.1208000,1600.00
803,-0.1212000,1560.00
804,-0.1216000,1600.00
805,-0.1220000,1560.00
806,-0.1224000,1600.00
807,-0.1228000,1580.00
808,-0.1232000,1600.00
809,-0.1236000,1580.00
810,-0.1240000,1600.00
811,-0.1244000,1580.00
812,-0.1248000,1600.00
813,-0.1252000,1560.00
814,-0.1256000,1600.00
815,-0.1260000,1580.00
816,-0.1264000,1620.00
817,-0.1268000,1580.00
818,-0.1272000,1620.00
819,-0.1276000,1580.00
820,-0.1280000,1620.00
821,-0.1284000,1600.00
822,-0.1288000,1640.00
823,-0.1292000,1580.00
824,-0.1296000,1640.00
825,-0.1300000,1600.00
826,-0.1304000,1640.00
827,-0.1308000,1600.00
828,-0.1312000,1640.00
829,-0.1316000,1600.00
830,-0.1320000,1620.00
831,-0.1324000,1600.00
832,-0.1328000,1640.00
833,-0.1332000,1600.00
834,-0.1336000,1640.00
835,-0.1340000,1600.00
836,-0.1344000,1640.00
837,-0.1348000,1600.00
838,-0.1352000,1640.00
839,-0.1356000,1600.00
840,-0.1360000,1640.00
841,-0.1364000,1600.00
842,-0.1368000,1640.00
843,-0.1372000,1600.00
844,-0.1376000,1640.00
845,-0.1380000,1600.00
846,-0.1384000,1640.00
847,-0.1388000,1600.00
848,-0.1392000,1640.00
849,-0.1396000,1600.00
850,-0.1400000,1640.00
851,-0.1404000,1600.00
852,-0.1408000,1660.00
853,-0.1412000,1600.00
854,-0.1416000,1660.00
855,-0.1420000,1600.00
856,-0.1424000,1640.00
857,-0.1428000,1600.00
858,-0.1432000,1640.00
859,-0.1436000,1600.00
860,-0.1440000,1640.00
861,-0.1444000,1600.00
862,-0.1448000,1660.00
863,-0.1452000,1600.00
864,-0.1456000,1660.00
865,-0.1460000,1600.00
866,-0.1464000,1660.00
867,-0.1468000,1600.00
868,-0.1472000,1660.00
869,-0.1476000,1620.00
870,-0.1480000,1660.00
871,-0.1484000,1620.00
872,-0.1488000,1660.00
873,-0.1492000,1620.00
874,-0.1496000,1660.00
875,-0.1500000,1620.00
876,-0.1504000,1660.00
877,-0.1508000,1620.00
878,-0.1512000,1660.00
879,-0.1516000,1620.00
880,-0.1520000,1660.00
881,-0.1524000,1600.00
882,-0.1528000,1660.00
883,-0.1532000,1600.00
884,-0.1536000,1660.00
885,-0.1540000,1620.00
886,-0.1544000,1660.00
887,-0.1548000,1620.00
888,-0.1552000,1660.00
889,-0.1556000,1600.00
890,-0.1560000,1660.00
891,-0.1564000,1620.00
892,-0.1568000,1660.00
893,-0.1572000,1600.00
894,-0.1576000,1660.00
895,-0.1580000,1620.00
896,-0.1584000,1660.00
897,-0.1588000,1620.00
898,-0.1592000,1660.00
899,-0.1596000,1620.00
900,-0.1600000,1660.00
901,-0.1604000,1620.00
902,-0.1608000,1660.00
903,-0.1612000,1620.00
904,-0.1616000,1660.00
905,-0.1620000,1600.00
906,-0.1624000,1660.00
907,-0.1628000,1620.00
908,-0.1632000,1660.00
909,-0.1636000,1620.00
910,-0.1640000,1660.00
911,-0.1644000,1620.00
912,-0.1648000,1660.00
913,-0.1652000,1620.00
914,-0.1656000,1660.00
915,-0.1660000,1620.00
916,-0.1664000,1660.00
917,-0.1668000,1640.00
918,-0.1672000,1660.00
919,-0.1676000,1600.00
920,-0.1680000,1660.00
921,-0.1684000,1620.00
922,-0.1688000,1660.00
923,-0.1692000,1620.00
924,-0.1696000,1660.00
925,-0.1700000,1620.00
926,-0.1704000,1660.00
927,-0.1708000,1620.00
928,-0.1712000,1660.00
929,-0.1716000,1620.00
930,-0.1720000,1660.00
931,-0.1724000,1600.00
932,-0.1728000,1660.00
933,-0.1732000,1620.00
934,-0.1736000,1660.00
935,-0.1740000,1620.00
936,-0.1744000,1660.00
937,-0.1748000,1620.00
938,-0.1752000,1660.00
939,-0.1756000,1620.00
940,-0.1760000,1660.00
941,-0.1764000,1640.00
942,-0.1768000,1660.00
943,-0.1772000,1640.00
944,-0.1776000,1660.00
945,-0.1780000,1620.00
946,-0.1784000,1660.00
947,-0.1788000,1620.00
948,-0.1792000,1660.00
949,-0.1796000,1620.00
950,-0.1800000,1660.00
951,-0.1804000,1640.00
952,-0.1808000,1660.00
953,-0.1812000,1620.00
954,-0.1816000,1660.00
955,-0.1820000,1620.00
956,-0.1824000,1660.00
957,-0.1828000,1620.00
958,-0.1832000,1660.00
959,-0.1836000,1620.00
960,-0.1840000,1660.00
961,-0.1844000,1620.00
962,-0.1848000,1660.00
963,-0.1852000,1600.00
964,-0.1856000,1660.00
965,-0.1860000,1620.00
966,-0.1864000,1660.00
967,-0.1868000,1620.00
968,-0.1872000,1660.00
969,-0.1876000,1620.00
970,-0.1880000,1660.00
971,-0.1884000,1620.00
972,-0.1888000,1660.00
973,-0.1892000,1620.00
974,-0.1896000,1660.00
975,-0.1900000,1620.00
976,-0.1904000,1660.00
977,-0.1908000,1640.00
978,-0.1912000,1660.00
979,-0.1916000,1600.00
980,-0.1920000,1660.00
981,-0.1924000,1620.00
982,-0.1928000,1660.00
983,-0.1932000,1620.00
984,-0.1936000,1660.00
985,-0.1940000,1620.00
986,-0.1944000,1660.00
987,-0.1948000,1620.00
988,-0.1952000,1660.00
989,-0.1956000,1620.00
990,-0.1960000,1660.00
991,-0.1964000,1620.00
992,-0.1968000,1660.00
993,-0.1972000,1620.00
994,-0.1976000,1660.00
995,-0.1980000,1620.00
996,-0.1984000,1660.00
997,-0.1988000,1620.00
998,-0.1992000,1660.00
999,-0.1996000,1620.00
1000,-0.2000000,1660.00
1001,-0.2004000,1620.00
1002,-0.2008000,1660.00
1003,-0.2012000,1620.00
1004,-0.2016000,1660.00
1005,-0.2020000,1620.00
1006,-0.2024000,1660.00
1007,-0.2028000,1620.00
1008,-0.2032000,1660.00
1009,-0.2036000,1620.00
1010,-0.2040000,1660.00
1011,-0.2044000,1620.00
1012,-0.2048000,1660.00
1013,-0.2052000,1600.00
1014,-0.2056000,1660.00
1015,-0.2060000,1620.00
1016,-0.2064000,1660.00
1017,-0.2068000,1600.00
1018,-0.2072000,1660.00
1019,-0.2076000,1620.00
1020,-0.2080000,1660.00
1021,-0.2084000,1620.00
1022,-0.2088000,1660.00
1023,-0.2092000,1600.00
1024,-0.2096000,1660.00
1025,-0.2100000,1600.00
1026,-0.2104000,1660.00
1027,-0.2108000,1600.00
1028,-0.2112000,1660.00
1029,-0.2116000,1620.00
1030,-0.2120000,1660.00
1031,-0.2124000,1600.00
1032,-0.2128000,1660.00
1033,-0.2132000,1620.00
1034,-0.2136000,1660.00
1035,-0.2140000,1600.00
1036,-0.2144000,1660.00
1037,-0.2148000,1600.00
1038,-0.2152000,1660.00
1039,-0.2156000,1600.00
1040,-0.2160000,1660.00
1041,-0.2164000,1600.00
1042,-0.2168000,1660.00
1043,-0.2172000,1620.00
1044,-0.2176000,1660.00
1045,-0.2180000,1620.00
1046,-0.2184000,1660.00
1047,-0.2188000,1620.00
1048,-0.2192000,1660.00
1049,-0.2196000,1620.00
1050,-0.2200000,1660.00
1051,-0.2204000,1620.00
1052,-0.2208000,1660.00
1053,-0.2212000,1600.00
1054,-0.2216000,1660.00
1055,-0.2220000,1600.00
1056,-0.2224000,1660.00
1057,-0.2228000,1620.00
1058,-0.2232000,1660.00
1059,-0.2236000,1620.00
1060,-0.2240000,1660.00
1061,-0.2244000,1600.00
1062,-0.2248000,1660.00
1063,-0.2252000,1600.00
1064,-0.2256000,1660.00
1065,-0.2260000,1600.00
1066,-0.2264000,1660.00
1067,-0.2268000,1620.00
1068,-0.2272000,1660.00
1069,-0.2276000,1620.00
1070,-0.2280000,1660.00
1071,-0.2284000,1600.00
1072,-0.2288000,1660.00
1073,-0.2292000,1600.00
1074,-0.2296000,1660.00
1075,-0.2300000,1620.00
1076,-0.2304000,1660.00
1077,-0.2308000,1600.00
1078,-0.2312000,1660.00
1079,-0.2316000,1600.00
1080,-0.2320000,1660.00
1081,-0.2324000,1600.00
1082,-0.2328000,1660.00
1083,-0.2332000,1600.00
1084,-0.2336000,1660.00
1085,-0.2340000,1600.00
1086,-0.2344000,1640.00
1087,-0.2348000,1600.00
1088,-0.2352000,1660.00
1089,-0.2356000,1600.00
1090,-0.2360000,1660.00
1091,-0.2364000,1600.00
1092,-0.2368000,1660.00
1093,-0.2372000,1600.00
1094,-0.2376000,1640.00
1095,-0.2380000,1600.00
1096,-0.2384000,1640.00
1097,-0.2388000,1600.00
1098,-0.2392000,1640.00
1099,-0.2396000,1600.00
1100,-0.2400000,1640.00
1101,-0.2404000,1600.00
1102,-0.2408000,1640.00
1103,-0.2412000,1600.00
1104,-0.2416000,1640.00
1105,-0.2420000,1600.00
1106,-0.2424000,1640.00
1107,-0.2428000,1600.00
1108,-0.2432000,1660.00
1109,-0.2436000,1600.00
1110,-0.2440000,1640.00
1111,-0.2444000,1600.00
1112,-0.2448000,1640.00
1113,-0.2452000,1600.00
1114,-0.2456000,1640.00
1115,-0.2460000,1600.00
1116,-0.2464000,1640.00
1117,-0.2468000,1600.00
1118,-0.2472000,1640.00
1119,-0.2476000,1600.00
1120,-0.2480000,1640.00
1121,-0.2484000,1600.00
1122,-0.2488000,1640.00
1123,-0.2492000,1600.00
1124,-0.2496000,1640.00
1125,-0.2500000,1600.00
1126,-0.2504000,1640.00
1127,-0.2508000,1600.00
1128,-0.2512000,1640.00
1129,-0.2516000,1600.00
1130,-0.2520000,1640.00
1131,-0.2524000,1600.00
1132,-0.2528000,1640.00
1133,-0.2532000,1600.00
1134,-0.2536000,1640.00
1135,-0.2540000,1600.00
1136,-0.2544000,1640.00
1137,-0.2548000,1600.00
1138,-0.2552000,1640.00
1139,-0.2556000,1600.00
1140,-0.2560000,1640.00
1141,-0.2564000,1600.00
1142,-0.2568000,1640.00
1143,-0.2572000,1600.00
1144,-0.2576000,1640.00
1145,-0.2580000,1600.00
1146,-0.2584000,1640.00
1147,-0.2588000,1600.00
1148,-0.2592000,1640.00
1149,-0.2596000,1600.00
1150,-0.2600000,1640.00
1151,-0.2604000,1600.00
1152,-0.2608000,1640.00
1153,-0.2612000,1600.00
1154,-0.2616000,1640.00
1155,-0.2620000,1600.00
1156,-0.2624000,1640.00
1157,-0.2628000,1600.00
1158,-0.2632000,1640.00
1159,-0.2636000,1600.00
1160,-0.2640000,1640.00
1161,-0.2644000,1580.00
1162,-0.2648000,1640.00
1163,-0.2652000,1600.00
1164,-0.2656000,1640.00
1165,-0.2660000,1580.00
1166,-0.2664000,1620.00
1167,-0.2668000,1600.00
1168,-0.2672000,1640.00
1169,-0.2676000,1600.00
1170,-0.2680000,1640.00
1171,-0.2684000,1600.00
1172,-0.2688000,1640.00
1173,-0.2692000,1580.00
1174,-0.2696000,1640.00
1175,-0.2700000,1580.00
1176,-0.2704000,1620.00
1177,-0.2708000,1580.00
1178,-0.2712000,1620.00
1179,-0.2716000,1580.00
1180,-0.2720000,1620.00
1181,-0.2724000,1600.00
1182,-0.2728000,1620.00
1183,-0.2732000,1600.00
1184,-0.2736000,1620.00
1185,-0.2740000,1600.00
1186,-0.2744000,1620.00
1187,-0.2748000,1580.00
1188,-0.2752000,1620.00
1189,-0.2756000,1580.00
1190,-0.2760000,1620.00
1191,-0.2764000,1580.00
1192,-0.2768000,1620.00
1193,-0.2772000,1580.00
1194,-0.2776000,1620.00
1195,-0.2780000,1580.00
1196,-0.2784000,1620.00
1197,-0.2788000,1580.00
1198,-0.2792000,1600.00
1199,-0.2796000,1580.00
1200,-0.2800000,1620.00
1201,-0.2804000,1580.00
1202,-0.2808000,1620.00
1203,-0.2812000,1580.00
1204,-0.2816000,1600.00
1205,-0.2820000,1580.00
1206,-0.2824000,1600.00
1207,-0.2828000,1580.00
1208,-0.2832000,1600.00
1209,-0.2836000,1580.00
1210,-0.2840000,1600.00
1211,-0.2844000,1580.00
1212,-0.2848000,1600.00
1213,-0.2852000,1580.00
1214,-0.2856000,1600.00
1215,-0.2860000,1580.00
1216,-0.2864000,1600.00
1217,-0.2868000,1580.00
1218,-0.2872000,1600.00
1219,-0.2876000,1560.00
1220,-0.2880000,1600.00
1221,-0.2884000,1580.00
1222,-0.2888000,1600.00
1223,-0.2892000,1560.00
1224,-0.2896000,1600.00
1225,-0.2900000,1580.00
1226,-0.2904000,1600.00
1227,-0.2908000,1580.00
1228,-0.2912000,1600.00
1229,-0.2916000,1560.00
1230,-0.2920000,1600.00
1231,-0.2924000,1560.00
1232,-0.2928000,1600.00
1233,-0.2932000,1560.00
1234,-0.2936000,1600.00
1235,-0.2940000,1560.00
1236,-0.2944000,1600.00
1237,-0.2948000,1580.00
1238,-0.2952000,1600.00
1239,-0.2956000,1560.00
1240,-0.2960000,1600.00
1241,-0.2964000,1560.00
1242,-0.2968000,1600.00
1243,-0.2972000,1560.00
1244,-0.2976000,1600.00
1245,-0.2980000,1560.00
1246,-0.2984000,1600.00
1247,-0.2988000,1560.00
1248,-0.2992000,1600.00
1249,-0.2996000,1560.00
1250,-0.3000000,1600.00
1251,-0.3004000,1560.00
1252,-0.3008000,1600.00
1253,-0.3012000,1560.00
1254,-0.3016000,1600.00
1255,-0.3020000,1560.00
1256,-0.3024000,1600.00
1257,-0.3028000,1560.00
1258,-0.3032000,1600.00
1259,-0.3036000,1560.00
1260,-0.3040000,1600.00
1261,-0.3044000,1560.00
1262,-0.3048000,1600.00
1263,-0.3052000,1560.00
1264,-0.3056000,1600.00
1265,-0.3060000,1560.00
1266,-0.3064000,1600.00
1267,-0.3068000,1560.00
1268,-0.3072000,1600.00
1269,-0.3076000,1560.00
1270,-0.3080000,1600.00
1271,-0.3084000,1560.00
1272,-0.3088000,1600.00
1273,-0.3092000,1560.00
1274,-0.3096000,1600.00
1275,-0.3100000,1560.00
1276,-0.3104000,1600.00
1277,-0.3108000,1560.00
1278,-0.3112000,1600.00
1279,-0.3116000,1540.00
1280,-0.3120000,1580.00
1281,-0.3124000,1560.00
1282,-0.3128000,1600.00
1283,-0.3132000,1560.00
1284,-0.3136000,1600.00
1285,-0.3140000,1560.00
1286,-0.3144000,1600.00
1287,-0.3148000,1540.00
1288,-0.3152000,1600.00
1289,-0.3156000,1560.00
1290,-0.3160000,1580.00
1291,-0.3164000,1540.00
1292,-0.3168000,1600.00
1293,-0.3172000,1540.00
1294,-0.3176000,1580.00
1295,-0.3180000,1540.00
1296,-0.3184000,1600.00
1297,-0.3188000,1540.00
1298,-0.3192000,1580.00
1299,-0.3196000,1540.00
1300,-0.3200000,1580.00
1301,-0.3204000,1540.00
1302,-0.3208000,1580.00
1303,-0.3212000,1540.00
1304,-0.3216000,1580.00
1305,-0.3220000,1520.00
1306,-0.3224000,1580.00
1307,-0.3228000,1520.00
1308,-0.3232000,1580.00
1309,-0.3236000,1520.00
1310,-0.3240000,1580.00
1311,-0.3244000,1540.00
1312,-0.3248000,1580.00
1313,-0.3252000,1520.00
1314,-0.3256000,1580.00
1315,-0.3260000,1540.00
1316,-0.3264000,1580.00
1317,-0.3268000,1520.00
1318,-0.3272000,1580.00
1319,-0.3276000,1540.00
1320,-0.3280000,1580.00
1321,-0.3284000,1520.00
1322,-0.3288000,1580.00
1323,-0.3292000,1520.00
1324,-0.3296000,1580.00
1325,-0.3300000,1520.00
1326,-0.3304000,1580.00
1327,-0.3308000,1520.00
1328,-0.3312000,1580.00
1329,-0.3316000,1520.00
1330,-0.3320000,1580.00
1331,-0.3324000,1520.00
1332,-0.3328000,1580.00
1333,-0.3332000,1520.00
1334,-0.3336000,1560.00
1335,-0.3340000,1520.00
1336,-0.3344000,1560.00
1337,-0.3348000,1520.00
1338,-0.3352000,1560.00
1339,-0.3356000,1520.00
1340,-0.3360000,1560.00
1341,-0.3364000,1500.00
1342,-0.3368000,1560.00
1343,-0.3372000,1520.00
1344,-0.3376000,1560.00
1345,-0.3380000,1520.00
1346,-0.3384000,1560.00
1347,-0.3388000,1520.00
1348,-0.3392000,1560.00
1349,-0.3396000,1520.00
1350,-0.3400000,1560.00
1351,-0.3404000,1520.00
1352,-0.3408000,1560.00
1353,-0.3412000,1520.00
1354,-0.3416000,1560.00
1355,-0.3420000,1520.00
1356,-0.3424000,1560.00
1357,-0.3428000,1520.00
1358,-0.3432000,1560.00
1359,-0.3436000,1500.00
1360,-0.3440000,1560.00
1361,-0.3444000,1520.00
1362,-0.3448000,1560.00
1363,-0.3452000,1520.00
1364,-0.3456000,1560.00
1365,-0.3460000,1500.00
1366,-0.3464000,1560.00
1367,-0.3468000,1500.00
1368,-0.3472000,1560.00
1369,-0.3476000,1520.00
1370,-0.3480000,1560.00
1371,-0.3484000,1520.00
1372,-0.3488000,1560.00
1373,-0.3492000,1500.00
1374,-0.3496000,1560.00
1375,-0.3500000,1500.00
1376,-0.3504000,1560.00
1377,-0.3508000,1520.00
1378,-0.3512000,1540.00
1379,-0.3516000,1500.00
1380,-0.3520000,1560.00
1381,-0.3524000,1500.00
1382,-0.3528000,1560.00
1383,-0.3532000,1500.00
1384,-0.3536000,1540.00
1385,-0.3540000,1500.00
1386,-0.3544000,1560.00
1387,-0.3548000,1500.00
1388,-0.3552000,1560.00
1389,-0.3556000,1500.00
1390,-0.3560000,1540.00
1391,-0.3564000,1500.00
1392,-0.3568000,1540.00
1393,-0.3572000,1500.00
1394,-0.3576000,1540.00
1395,-0.3580000,1500.00
1396,-0.3584000,1540.00
1397,-0.3588000,1500.00
1398,-0.3592000,1540.00
1399,-0.3596000,1500.00
1400,-0.3600000,1540.00
1401,-0.3604000,1500.00
1402,-0.3608000,1540.00
1403,-0.3612000,1500.00
1404,-0.3616000,1540.00
1405,-0.3620000,1480.00
1406,-0.3624000,1540.00
1407,-0.3628000,1500.00
1408,-0.3632000,1540.00
1409,-0.3636000,1500.00
1410,-0.3640000,1540.00
1411,-0.3644000,1500.00
1412,-0.3648000,1540.00
1413,-0.3652000,1500.00
1414,-0.3656000,1540.00
1415,-0.3660000,1480.00
1416,-0.3664000,1520.00
1417,-0.3668000,1480.00
1418,-0.3672000,1520.00
1419,-0.3676000,1480.00
1420,-0.3680000,1540.00
1421,-0.3684000,1480.00
1422,-0.3688000,1520.00
1423,-0.3692000,1500.00
1424,-0.3696000,1520.00
1425,-0.3700000,1500.00
1426,-0.3704000,1520.00
1427,-0.3708000,1480.00
1428,-0.3712000,1520.00
1429,-0.3716000,1480.00
1430,-0.3720000,1520.00
1431,-0.3724000,1480.00
1432,-0.3728000,1520.00
1433,-0.3732000,1480.00
1434,-0.3736000,1520.00
1435,-0.3740000,1480.00
1436,-0.3744000,1520.00
1437,-0.3748000,1480.00
1438,-0.3752000,1520.00
1439,-0.3756000,1480.00
1440,-0.3760000,1520.00
1441,-0.3764000,1480.00
1442,-0.3768000,1520.00
1443,-0.3772000,1480.00
1444,-0.3776000,1520.00
1445,-0.3780000,1480.00
1446,-0.3784000,1520.00
1447,-0.3788000,1480.00
1448,-0.3792000,1520.00
1449,-0.3796000,1480.00
1450,-0.3800000,1520.00
1451,-0.3804000,1480.00
1452,-0.3808000,1520.00
1453,-0.3812000,1460.00
1454,-0.3816000,1520.00
1455,-0.3820000,1480.00
1456,-0.3824000,1520.00
1457,-0.3828000,1480.00
1458,-0.3832000,1520.00
1459,-0.3836000,1480.00
1460,-0.3840000,1520.00
1461,-0.3844000,1480.00
1462,-0.3848000,1520.00
1463,-0.3852000,1480.00
1464,-0.3856000,1500.00
1465,-0.3860000,1460.00
1466,-0.3864000,1500.00
1467,-0.3868000,1460.00
1468,-0.3872000,1500.00
1469,-0.3876000,1460.00
1470,-0.3880000,1520.00
1471,-0.3884000,1480.00
1472,-0.3888000,1500.00
1473,-0.3892000,1460.00
1474,-0.3896000,1500.00
1475,-0.3900000,1460.00
1476,-0.3904000,1500.00
1477,-0.3908000,1460.00
1478,-0.3912000,1500.00
1479,-0.3916000,1460.00
1480,-0.3920000,1500.00
1481,-0.3924000,1460.00
1482,-0.3928000,1500.00
1483,-0.3932000,1460.00
1484,-0.3936000,1500.00
1485,-0.3940000,1440.00
1486,-0.3944000,1500.00
1487,-0.3948000,1460.00
1488,-0.3952000,1500.00
1489,-0.3956000,1460.00
1490,-0.3960000,1500.00
1491,-0.3964000,1440.00
1492,-0.3968000,1500.00
1493,-0.3972000,1460.00
1494,-0.3976000,1500.00
1495,-0.3980000,1460.00
1496,-0.3984000,1500.00
1497,-0.3988000,1440.00
1498,-0.3992000,1500.00
1499,-0.3996000,1440.00
1500,-0.4000000,1500.00
1501,-0.4004000,1440.00
1502,-0.4008000,1500.00
1503,-0.4012000,1440.00
1504,-0.4016000,1500.00
1505,-0.4020000,1440.00
1506,-0.4024000,1500.00
1507,-0.4028000,1440.00
1508,-0.4032000,1500.00
1509,-0.4036000,1440.00
1510,-0.4040000,1500.00
1511,-0.4044000,1440.00
1512,-0.4048000,1500.00
1513,-0.4052000,1440.00
1514,-0.4056000,1500.00
1515,-0.4060000,1440.00
1516,-0.4064000,1500.00
1517,-0.4068000,1440.00
1518,-0.4072000,1500.00
1519,-0.4076000,1440.00
1520,-0.4080000,1500.00
1521,-0.4084000,1440.00
1522,-0.4088000,1500.00
1523,-0.4092000,1440.00
1524,-0.4096000,1500.00
1525,-0.4100000,1440.00
1526,-0.4104000,1480.00
1527,-0.4108000,1440.00
1528,-0.4112000,1500.00
1529,-0.4116000,1440.00
1530,-0.4120000,1480.00
1531,-0.4124000,1440.00
1532,-0.4128000,1480.00
1533,-0.4132000,1440.00
1534,-0.4136000,1480.00
1535,-0.4140000,1440.00
1536,-0.4144000,1500.00
1537,-0.4148000,1440.00
1538,-0.4152000,1480.00
1539,-0.4156000,1440.00
1540,-0.4160000,1480.00
1541,-0.4164000,1440.00
1542,-0.4168000,1500.00
1543,-0.4172000,1440.00
1544,-0.4176000,1480.00
1545,-0.4180000,1440.00
1546,-0.4184000,1480.00
1547,-0.4188000,1440.00
1548,-0.4192000,1480.00
1549,-0.4196000,1440.00
1550,-0.4200000,1480.00
1551,-0.4204000,1440.00
1552,-0.4208000,1480.00
1553,-0.4212000,1440.00
1554,-0.4216000,1480.00
1555,-0.4220000,1440.00
1556,-0.4224000,1480.00
1557,-0.4228000,1440.00
1558,-0.4232000,1460.00
1559,-0.4236000,1440.00
1560,-0.4240000,1460.00
1561,-0.4244000,1440.00
1562,-0.4248000,1480.00
1563,-0.4252000,1440.00
1564,-0.4256000,1460.00
1565,-0.4260000,1420.00
1566,-0.4264000,1480.00
1567,-0.4268000,1420.00
1568,-0.4272000,1480.00
1569,-0.4276000,1440.00
1570,-0.4280000,1460.00
1571,-0.4284000,1440.00
1572,-0.4288000,1460.00
1573,-0.4292000,1440.00
1574,-0.4296000,1480.00
1575,-0.4300000,1440.00
1576,-0.4304000,1460.00
1577,-0.4308000,1420.00
1578,-0.4312000,1460.00
1579,-0.4316000,1420.00
1580,-0.4320000,1440.00
1581,-0.4324000,1420.00
1582,-0.4328000,1460.00
1583,-0.4332000,1420.00
1584,-0.4336000,1460.00
1585,-0.4340000,1420.00
1586,-0.4344000,1460.00
1587,-0.4348000,1420.00
1588,-0.4352000,1460.00
1589,-0.4356000,1420.00
1590,-0.4360000,1440.00
1591,-0.4364000,1420.00
1592,-0.4368000,1460.00
1593,-0.4372000,1420.00
1594,-0.4376000,1440.00
1595,-0.4380000,1420.00
1596,-0.4384000,1440.00
1597,-0.4388000,1420.00
1598,-0.4392000,1440.00
1599,-0.4396000,1420.00
1600,-0.4400000,1440.00
1601,-0.4404000,1400.00
1602,-0.4408000,1440.00
1603,-0.4412000,1400.00
1604,-0.4416000,1440.00
1605,-0.4420000,1420.00
1606,-0.4424000,1460.00
1607,-0.4428000,1420.00
1608,-0.4432000,1440.00
1609,-0.4436000,1400.00
1610,-0.4440000,1440.00
1611,-0.4444000,1420.00
1612,-0.4448000,1440.00
1613,-0.4452000,1400.00
1614,-0.4456000,1460.00
1615,-0.4460000,1400.00
1616,-0.4464000,1440.00
1617,-0.4468000,1400.00
1618,-0.4472000,1440.00
1619,-0.4476000,1420.00
1620,-0.4480000,1440.00
1621,-0.4484000,1400.00
1622,-0.4488000,1440.00
1623,-0.4492000,1400.00
1624,-0.4496000,1440.00
1625,-0.4500000,1400.00
1626,-0.4504000,1440.00
1627,-0.4508000,1400.00
1628,-0.4512000,1440.00
1629,-0.4516000,1400.00
1630,-0.4520000,1440.00
1631,-0.4524000,1400.00
1632,-0.4528000,1440.00
1633,-0.4532000,1400.00
1634,-0.4536000,1440.00
1635,-0.4540000,1400.00
1636,-0.4544000,1440.00
1637,-0.4548000,1400.00
1638,-0.4552000,1440.00
1639,-0.4556000,1380.00
1640,-0.4560000,1440.00
1641,-0.4564000,1400.00
1642,-0.4568000,1440.00
1643,-0.4572000,1400.00
1644,-0.4576000,1440.00
1645,-0.4580000,1400.00
1646,-0.4584000,1440.00
1647,-0.4588000,1400.00
1648,-0.4592000,1440.00
1649,-0.4596000,1400.00
1650,-0.4600000,1440.00
1651,-0.4604000,1380.00
1652,-0.4608000,1440.00
1653,-0.4612000,1400.00
1654,-0.4616000,1440.00
1655,-0.4620000,1380.00
1656,-0.4624000,1420.00
1657,-0.4628000,1400.00
1658,-0.4632000,1440.00
1659,-0.4636000,1380.00
1660,-0.4640000,1420.00
1661,-0.4644000,1380.00
1662,-0.4648000,1420.00
1663,-0.4652000,1400.00
1664,-0.4656000,1420.00
1665,-0.4660000,1380.00
1666,-0.4664000,1420.00
1667,-0.4668000,1400.00
1668,-0.4672000,1440.00
1669,-0.4676000,1380.00
1670,-0.4680000,1420.00
1671,-0.4684000,1380.00
1672,-0.4688000,1420.00
1673,-0.4692000,1380.00
1674,-0.4696000,1420.00
1675,-0.4700000,1380.00
1676,-0.4704000,1420.00
1677,-0.4708000,1380.00
1678,-0.4712000,1420.00
1679,-0.4716000,1360.00
1680,-0.4720000,1420.00
1681,-0.4724000,1380.00
1682,-0.4728000,1420.00
1683,-0.4732000,1360.00
1684,-0.4736000,1420.00
1685,-0.4740000,1360.00
1686,-0.4744000,1420.00
1687,-0.4748000,1360.00
1688,-0.4752000,1420.00
1689,-0.4756000,1360.00
1690,-0.4760000,1420.00
1691,-0.4764000,1380.00
1692,-0.4768000,1420.00
1693,-0.4772000,1360.00
1694,-0.4776000,1400.00
1695,-0.4780000,1360.00
1696,-0.4784000,1420.00
1697,-0.4788000,1360.00
1698,-0.4792000,1420.00
1699,-0.4796000,1360.00
1700,-0.4800000,1400.00
1701,-0.4804000,1360.00
1702,-0.4808000,1400.00
1703,-0.4812000,1360.00
1704,-0.4816000,1420.00
1705,-0.4820000,1360.00
1706,-0.4824000,1400.00
1707,-0.4828000,1360.00
1708,-0.4832000,1400.00
1709,-0.4836000,1360.00
1710,-0.4840000,1400.00
1711,-0.4844000,1360.00
1712,-0.4848000,1400.00
1713,-0.4852000,1360.00
1714,-0.4856000,1400.00
1715,-0.4860000,1360.00
1716,-0.4864000,1400.00
1717,-0.4868000,1360.00
1718,-0.4872000,1420.00
1719,-0.4876000,1360.00
1720,-0.4880000,1400.00
1721,-0.4884000,1360.00
1722,-0.4888000,1400.00
1723,-0.4892000,1360.00
1724,-0.4896000,1400.00
1725,-0.4900000,1360.00
1726,-0.4904000,1400.00
1727,-0.4908000,1360.00
1728,-0.4912000,1400.00
1729,-0.4916000,1360.00
1730,-0.4920000,1400.00
1731,-0.4924000,1340.00
1732,-0.4928000,1400.00
1733,-0.4932000,1340.00
1734,-0.4936000,1400.00
1735,-0.4940000,1360.00
1736,-0.4944000,1400.00
1737,-0.4948000,1340.00
1738,-0.4952000,1400.00
1739,-0.4956000,1340.00
1740,-0.4960000,1400.00
1741,-0.4964000,1340.00
1742,-0.4968000,1400.00
1743,-0.4972000,1340.00
1744,-0.4976000,1400.00
1745,-0.4980000,1340.00
1746,-0.4984000,1400.00
1747,-0.4988000,1340.00
1748,-0.4992000,1400.00
1749,-0.4996000,1360.00
1750,-0.5000000,1400.00
1751,-0.5004000,1340.00
1752,-0.5008000,1380.00
1753,-0.5012000,1340.00
1754,-0.5016000,1380.00
1755,-0.5020000,1340.00
1756,-0.5024000,1380.00
1757,-0.5028000,1340.00
1758,-0.5032000,1380.00
1759,-0.5036000,1340.00
1760,-0.5040000,1380.00
1761,-0.5044000,1340.00
1762,-0.5048000,1380.00
1763,-0.5052000,1340.00
1764,-0.5056000,1380.00
1765,-0.5060000,1340.00
1766,-0.5064000,1380.00
1767,-0.5068000,1340.00
1768,-0.5072000,1380.00
1769,-0.5076000,1340.00
1770,-0.5080000,1380.00
1771,-0.5084000,1320.00
1772,-0.5088000,1380.00
1773,-0.5092000,1340.00
1774,-0.5096000,1380.00
1775,-0.5100000,1340.00
1776,-0.5104000,1380.00
1777,-0.5108000,1340.00
1778,-0.5112000,1360.00
1779,-0.5116000,1340.00
1780,-0.5120000,1360.00
1781,-0.5124000,1340.00
1782,-0.5128000,1380.00
1783,-0.5132000,1340.00
1784,-0.5136000,1360.00
1785,-0.5140000,1340.00
1786,-0.5144000,1360.00
1787,-0.5148000,1340.00
1788,-0.5152000,1360.00
1789,-0.5156000,1340.00
1790,-0.5160000,1360.00
1791,-0.5164000,1340.00
1792,-0.5168000,1360.00
1793,-0.5172000,1320.00
1794,-0.5176000,1380.00
1795,-0.5180000,1320.00
1796,-0.5184000,1360.00
1797,-0.5188000,1320.00
1798,-0.5192000,1360.00
1799,-0.5196000,1320.00
1800,-0.5200000,1360.00
1801,-0.5204000,1320.00
1802,-0.5208000,1360.00
1803,-0.5212000,1320.00
1804,-0.5216000,1360.00
1805,-0.5220000,1320.00
1806,-0.5224000,1360.00
1807,-0.5228000,1320.00
1808,-0.5232000,1360.00
1809,-0.5236000,1320.00
1810,-0.5240000,1360.00
1811,-0.5244000,1320.00
1812,-0.5248000,1360.00
1813,-0.5252000,1320.00
1814,-0.5256000,1360.00
1815,-0.5260000,1320.00
1816,-0.5264000,1360.00
1817,-0.5268000,1320.00
1818,-0.5272000,1360.00
1819,-0.5276000,1320.00
1820,-0.5280000,1360.00
1821,-0.5284000,1320.00
1822,-0.5288000,1360.00
1823,-0.5292000,1320.00
1824,-0.5296000,1360.00
1825,-0.5300000,1320.00
1826,-0.5304000,1360.00
1827,-0.5308000,1320.00
1828,-0.5312000,1360.00
1829,-0.5316000,1320.00
1830,-0.5320000,1340.00
1831,-0.5324000,1320.00
1832,-0.5328000,1360.00
1833,-0.5332000,1300.00
1834,-0.5336000,1340.00
1835,-0.5340000,1320.00
1836,-0.5344000,1340.00
1837,-0.5348000,1320.00
1838,-0.5352000,1340.00
1839,-0.5356000,1320.00
1840,-0.5360000,1340.00
1841,-0.5364000,1320.00
1842,-0.5368000,1340.00
1843,-0.5372000,1320.00
1844,-0.5376000,1340.00
1845,-0.5380000,1300.00
1846,-0.5384000,1340.00
1847,-0.5388000,1280.00
1848,-0.5392000,1340.00
1849,-0.5396000,1300.00
1850,-0.5400000,1340.00
1851,-0.5404000,1300.00
1852,-0.5408000,1340.00
1853,-0.5412000,1300.00
1854,-0.5416000,1340.00
1855,-0.5420000,1300.00
1856,-0.5424000,1340.00
1857,-0.5428000,1280.00
1858,-0.5432000,1360.00
1859,-0.5436000,1300.00
1860,-0.5440000,1340.00
1861,-0.5444000,1300.00
1862,-0.5448000,1340.00
1863,-0.5452000,1280.00
1864,-0.5456000,1340.00
1865,-0.5460000,1300.00
1866,-0.5464000,1340.00
1867,-0.5468000,1300.00
1868,-0.5472000,1340.00
1869,-0.5476000,1280.00
1870,-0.5480000,1340.00
1871,-0.5484000,1300.00
1872,-0.5488000,1340.00
1873,-0.5492000,1280.00
1874,-0.5496000,1340.00
1875,-0.5500000,1280.00
1876,-0.5504000,1340.00
1877,-0.5508000,1280.00
1878,-0.5512000,1340.00
1879,-0.5516000,1280.00
1880,-0.5520000,1340.00
1881,-0.5524000,1280.00
1882,-0.5528000,1340.00
1883,-0.5532000,1280.00
1884,-0.5536000,1340.00
1885,-0.5540000,1280.00
1886,-0.5544000,1340.00
1887,-0.5548000,1280.00
1888,-0.5552000,1340.00
1889,-0.5556000,1280.00
1890,-0.5560000,1340.00
1891,-0.5564000,1280.00
1892,-0.5568000,1320.00
1893,-0.5572000,1280.00
1894,-0.5576000,1320.00
1895,-0.5580000,1280.00
1896,-0.5584000,1340.00
1897,-0.5588000,1280.00
1898,-0.5592000,1320.00
1899,-0.5596000,1280.00
1900,-0.5600000,1340.00
1901,-0.5604000,1280.00
1902,-0.5608000,1340.00
1903,-0.5612000,1280.00
1904,-0.5616000,1320.00
1905,-0.5620000,1280.00
1906,-0.5624000,1340.00
1907,-0.5628000,1280.00
1908,-0.5632000,1320.00
1909,-0.5636000,1280.00
1910,-0.5640000,1320.00
1911,-0.5644000,1280.00
1912,-0.5648000,1340.00
1913,-0.5652000,1280.00
1914,-0.5656000,1320.00
1915,-0.5660000,1280.00
1916,-0.5664000,1320.00
1917,-0.5668000,1280.00
1918,-0.5672000,1320.00
1919,-0.5676000,1280.00
1920,-0.5680000,1320.00
1921,-0.5684000,1280.00
1922,-0.5688000,1320.00
1923,-0.5692000,1280.00
1924,-0.5696000,1320.00
1925,-0.5700000,1280.00
1926,-0.5704000,1320.00
1927,-0.5708000,1280.00
1928,-0.5712000,1320.00
1929,-0.5716000,1280.00
1930,-0.5720000,1320.00
1931,-0.5724000,1280.00
1932,-0.5728000,1320.00
1933,-0.5732000,1280.00
1934,-0.5736000,1300.00
1935,-0.5740000,1280.00
1936,-0.5744000,1320.00
1937,-0.5748000,1280.00
1938,-0.5752000,1300.00
1939,-0.5756000,1280.00
1940,-0.5760000,1300.00
1941,-0.5764000,1260.00
1942,-0.5768000,1320.00
1943,-0.5772000,1280.00
1944,-0.5776000,1300.00
1945,-0.5780000,1280.00
1946,-0.5784000,1300.00
1947,-0.5788000,1260.00
1948,-0.5792000,1300.00
1949,-0.5796000,1260.00
1950,-0.5800000,1320.00
1951,-0.5804000,1280.00
1952,-0.5808000,1300.00
1953,-0.5812000,1260.00
1954,-0.5816000,1320.00
1955,-0.5820000,1280.00
1956,-0.5824000,1300.00
1957,-0.5828000,1260.00
1958,-0.5832000,1300.00
1959,-0.5836000,1260.00
1960,-0.5840000,1300.00
1961,-0.5844000,1280.00
1962,-0.5848000,1320.00
1963,-0.5852000,1260.00
1964,-0.5856000,1300.00
1965,-0.5860000,1260.00
1966,-0.5864000,1280.00
1967,-0.5868000,1260.00
1968,-0.5872000,1300.00
1969,-0.5876000,1260.00
1970,-0.5880000,1320.00
1971,-0.5884000,1260.00
1972,-0.5888000,1280.00
1973,-0.5892000,1240.00
1974,-0.5896000,1280.00
1975,-0.5900000,1260.00
1976,-0.5904000,1280.00
1977,-0.5908000,1260.00
1978,-0.5912000,1280.00
1979,-0.5916000,1260.00
1980,-0.5920000,1280.00
1981,-0.5924000,1260.00
1982,-0.5928000,1280.00
1983,-0.5932000,1260.00
1984,-0.5936000,1280.00
1985,-0.5940000,1260.00
1986,-0.5944000,1280.00
1987,-0.5948000,1260.00
1988,-0.5952000,1280.00
1989,-0.5956000,1260.00
1990,-0.5960000,1280.00
1991,-0.5964000,1260.00
1992,-0.5968000,1280.00
1993,-0.5972000,1260.00
1994,-0.5976000,1280.00
1995,-0.5980000,1240.00
1996,-0.5984000,1280.00
1997,-0.5988000,1240.00
1998,-0.5992000,1280.00
1999,-0.5996000,1240.00
2000,-0.6000000,1280.00
2001,-0.6004000,1260.00
2002,-0.6008000,1280.00
2003,-0.6012000,1240.00
2004,-0.6016000,1280.00
2005,-0.6020000,1240.00
2006,-0.6024000,1280.00
2007,-0.6028000,1240.00
2008,-0.6032000,1280.00
2009,-0.6036000,1240.00
2010,-0.6040000,1280.00
2011,-0.6044000,1240.00
2012,-0.6048000,1280.00
2013,-0.6052000,1240.00
2014,-0.6056000,1280.00
2015,-0.6060000,1240.00
2016,-0.6064000,1280.00
2017,-0.6068000,1240.00
2018,-0.6072000,1280.00
2019,-0.6076000,1240.00
2020,-0.6080000,1280.00
2021,-0.6084000,1240.00
2022,-0.6088000,1280.00
2023,-0.6092000,1240.00
2024,-0.6096000,1280.00
2025,-0.6100000,1240.00
2026,-0.6104000,1280.00
2027,-0.6108000,1240.00
2028,-0.6112000,1280.00
2029,-0.6116000,1240.00
2030,-0.6120000,1280.00
2031,-0.6124000,1240.00
2032,-0.6128000,1280.00
2033,-0.6132000,1240.00
2034,-0.6136000,1280.00
2035,-0.6140000,1240.00
2036,-0.6144000,1280.00
2037,-0.6148000,1200.00
2038,-0.6152000,1280.00
2039,-0.6156000,1220.00
2040,-0.6160000,1280.00
2041,-0.6164000,1240.00
2042,-0.6168000,1280.00
2043,-0.6172000,1240.00
2044,-0.6176000,1280.00
2045,-0.6180000,1240.00
2046,-0.6184000,1280.00
2047,-0.6188000,1220.00
2048,-0.6192000,1260.00
2049,-0.6196000,1220.00
2050,-0.6200000,1280.00
2051,-0.6204000,1220.00
2052,-0.6208000,1280.00
2053,-0.6212000,1240.00
2054,-0.6216000,1260.00
2055,-0.6220000,1240.00
2056,-0.6224000,1280.00
2057,-0.6228000,1220.00
2058,-0.6232000,1280.00
2059,-0.6236000,1220.00
2060,-0.6240000,1280.00
2061,-0.6244000,1220.00
2062,-0.6248000,1280.00
2063,-0.6252000,1220.00
2064,-0.6256000,1260.00
2065,-0.6260000,1200.00
2066,-0.6264000,1260.00
2067,-0.6268000,1220.00
2068,-0.6272000,1260.00
2069,-0.6276000,1220.00
2070,-0.6280000,1260.00
2071,-0.6284000,1220.00
2072,-0.6288000,1260.00
2073,-0.6292000,1220.00
2074,-0.6296000,1260.00
2075,-0.6300000,1220.00
2076,-0.6304000,1260.00
2077,-0.6308000,1200.00
2078,-0.6312000,1260.00
2079,-0.6316000,1220.00
2080,-0.6320000,1260.00
2081,-0.6324000,1220.00
2082,-0.6328000,1260.00
2083,-0.6332000,1200.00
2084,-0.6336000,1260.00
2085,-0.6340000,1200.00
2086,-0.6344000,1260.00
2087,-0.6348000,1200.00
2088,-0.6352000,1260.00
2089,-0.6356000,1200.00
2090,-0.6360000,1260.00
2091,-0.6364000,1200.00
2092,-0.6368000,1260.00
2093,-0.6372000,1200.00
2094,-0.6376000,1260.00
2095,-0.6380000,1200.00
2096,-0.6384000,1260.00
2097,-0.6388000,1200.00
2098,-0.6392000,1260.00
2099,-0.6396000,1200.00
2100,-0.6400000,1240.00
2101,-0.6404000,1200.00
2102,-0.6408000,1240.00
2103,-0.6412000,1200.00
2104,-0.6416000,1240.00
2105,-0.6420000,1200.00
2106,-0.6424000,1240.00
2107,-0.6428000,1200.00
2108,-0.6432000,1260.00
2109,-0.6436000,1200.00
2110,-0.6440000,1240.00
2111,-0.6444000,1200.00
2112,-0.6448000,1240.00
2113,-0.6452000,1200.00
2114,-0.6456000,1240.00
2115,-0.6460000,1200.00
2116,-0.6464000,1240.00
2117,-0.6468000,1200.00
2118,-0.6472000,1240.00
2119,-0.6476000,1200.00
2120,-0.6480000,1260.00
2121,-0.6484000,1200.00
2122,-0.6488000,1240.00
2123,-0.6492000,1200.00
2124,-0.6496000,1240.00
2125,-0.6500000,1200.00
2126,-0.6504000,1240.00
2127,-0.6508000,1200.00
2128,-0.6512000,1240.00
2129,-0.6516000,1180.00
2130,-0.6520000,1240.00
2131,-0.6524000,1200.00
2132,-0.6528000,1240.00
2133,-0.6532000,1200.00
2134,-0.6536000,1240.00
2135,-0.6540000,1180.00
2136,-0.6544000,1240.00
2137,-0.6548000,1180.00
2138,-0.6552000,1240.00
2139,-0.6556000,1180.00
2140,-0.6560000,1240.00
2141,-0.6564000,1180.00
2142,-0.6568000,1240.00
2143,-0.6572000,1180.00
2144,-0.6576000,1240.00
2145,-0.6580000,1180.00
2146,-0.6584000,1240.00
2147,-0.6588000,1180.00
2148,-0.6592000,1240.00
2149,-0.6596000,1200.00
2150,-0.6600000,1240.00
2151,-0.6604000,1180.00
2152,-0.6608000,1240.00
2153,-0.6612000,1180.00
2154,-0.6616000,1240.00
2155,-0.6620000,1180.00
2156,-0.6624000,1240.00
2157,-0.6628000,1180.00
2158,-0.6632000,1240.00
2159,-0.6636000,1180.00
2160,-0.6640000,1240.00
2161,-0.6644000,1180.00
2162,-0.6648000,1240.00
2163,-0.6652000,1180.00
2164,-0.6656000,1240.00
2165,-0.6660000,1180.00
2166,-0.6664000,1220.00
2167,-0.6668000,1180.00
2168,-0.6672000,1240.00
2169,-0.6676000,1180.00
2170,-0.6680000,1220.00
2171,-0.6684000,1180.00
2172,-0.6688000,1240.00
2173,-0.6692000,1180.00
2174,-0.6696000,1240.00
2175,-0.6700000,1180.00
2176,-0.6704000,1220.00
2177,-0.6708000,1180.00
2178,-0.6712000,1220.00
2179,-0.6716000,1180.00
2180,-0.6720000,1220.00
2181,-0.6724000,1180.00
2182,-0.6728000,1220.00
2183,-0.6732000,1180.00
2184,-0.6736000,1220.00
2185,-0.6740000,1180.00
2186,-0.6744000,1220.00
2187,-0.6748000,1180.00
2188,-0.6752000,1220.00
2189,-0.6756000,1180.00
2190,-0.6760000,1220.00
2191,-0.6764000,1180.00
2192,-0.6768000,1220.00
2193,-0.6772000,1180.00
2194,-0.6776000,1220.00
2195,-0.6780000,1180.00
2196,-0.6784000,1220.00
2197,-0.6788000,1180.00
2198,-0.6792000,1220.00
2199,-0.6796000,1180.00
2200,-0.6800000,1220.00
2201,-0.6804000,1180.00
2202,-0.6808000,1200.00
2203,-0.6812000,1160.00
2204,-0.6816000,1220.00
2205,-0.6820000,1160.00
2206,-0.6824000,1200.00
2207,-0.6828000,1160.00
2208,-0.6832000,1200.00
2209,-0.6836000,1180.00
2210,-0.6840000,1220.00
2211,-0.6844000,1160.00
2212,-0.6848000,1200.00
2213,-0.6852000,1160.00
2214,-0.6856000,1200.00
2215,-0.6860000,1160.00
2216,-0.6864000,1200.00
2217,-0.6868000,1160.00
2218,-0.6872000,1200.00
2219,-0.6876000,1180.00
2220,-0.6880000,1200.00
2221,-0.6884000,1160.00
2222,-0.6888000,1200.00
2223,-0.6892000,1160.00
2224,-0.6896000,1200.00
2225,-0.6900000,1160.00
2226,-0.6904000,1200.00
2227,-0.6908000,1160.00
2228,-0.6912000,1200.00
2229,-0.6916000,1160.00
2230,-0.6920000,1220.00
2231,-0.6924000,1160.00
2232,-0.6928000,1200.00
2233,-0.6932000,1160.00
2234,-0.6936000,1200.00
2235,-0.6940000,1160.00
2236,-0.6944000,1200.00
2237,-0.6948000,1160.00
2238,-0.6952000,1200.00
2239,-0.6956000,1160.00
2240,-0.6960000,1200.00
2241,-0.6964000,1160.00
2242,-0.6968000,1200.00
2243,-0.6972000,1160.00
2244,-0.6976000,1200.00
2245,-0.6980000,1160.00
2246,-0.6984000,1200.00
2247,-0.6988000,1160.00
2248,-0.6992000,1200.00
2249,-0.6996000,1160.00
2250,-0.7000000,1200.00
2251,-0.7004000,1160.00
2252,-0.7008000,1200.00
2253,-0.7012000,1140.00
2254,-0.7016000,1180.00
2255,-0.7020000,1140.00
2256,-0.7024000,1180.00
2257,-0.7028000,1160.00
2258,-0.7032000,1180.00
2259,-0.7036000,1160.00
2260,-0.7040000,1180.00
2261,-0.7044000,1140.00
2262,-0.7048000,1200.00
2263,-0.7052000,1160.00
2264,-0.7056000,1200.00
2265,-0.7060000,1140.00
2266,-0.7064000,1200.00
2267,-0.7068000,1140.00
2268,-0.7072000,1180.00
2269,-0.7076000,1140.00
2270,-0.7080000,1180.00
2271,-0.7084000,1140.00
2272,-0.7088000,1180.00
2273,-0.7092000,1160.00
2274,-0.7096000,1180.00
2275,-0.7100000,1140.00
2276,-0.7104000,1180.00
2277,-0.7108000,1140.00
2278,-0.7112000,1180.00
2279,-0.7116000,1140.00
2280,-0.7120000,1180.00
2281,-0.7124000,1140.00
2282,-0.7128000,1180.00
2283,-0.7132000,1140.00
2284,-0.7136000,1180.00
2285,-0.7140000,1140.00
2286,-0.7144000,1180.00
2287,-0.7148000,1140.00
2288,-0.7152000,1180.00
2289,-0.7156000,1140.00
2290,-0.7160000,1180.00
2291,-0.7164000,1140.00
2292,-0.7168000,1180.00
2293,-0.7172000,1140.00
2294,-0.7176000,1180.00
2295,-0.7180000,1140.00
2296,-0.7184000,1180.00
2297,-0.7188000,1140.00
2298,-0.7192000,1180.00
2299,-0.7196000,1140.00
2300,-0.7200000,1180.00
2301,-0.7204000,1120.00
2302,-0.7208000,1180.00
2303,-0.7212000,1140.00
2304,-0.7216000,1180.00
2305,-0.7220000,1120.00
2306,-0.7224000,1180.00
2307,-0.7228000,1120.00
2308,-0.7232000,1180.00
2309,-0.7236000,1120.00
2310,-0.7240000,1180.00
2311,-0.7244000,1120.00
2312,-0.7248000,1180.00
2313,-0.7252000,1120.00
2314,-0.7256000,1180.00
2315,-0.7260000,1120.00
2316,-0.7264000,1180.00
2317,-0.7268000,1120.00
2318,-0.7272000,1180.00
2319,-0.7276000,1120.00
2320,-0.7280000,1180.00
2321,-0.7284000,1120.00
2322,-0.7288000,1180.00
2323,-0.7292000,1120.00
2324,-0.7296000,1160.00
2325,-0.7300000,1120.00
2326,-0.7304000,1160.00
2327,-0.7308000,1120.00
2328,-0.7312000,1160.00
2329,-0.7316000,1120.00
2330,-0.7320000,1160.00
2331,-0.7324000,1120.00
2332,-0.7328000,1180.00
2333,-0.7332000,1120.00
2334,-0.7336000,1160.00
2335,-0.7340000,1120.00
2336,-0.7344000,1160.00
2337,-0.7348000,1120.00
2338,-0.7352000,1160.00
2339,-0.7356000,1120.00
2340,-0.7360000,1160.00
2341,-0.7364000,1120.00
2342,-0.7368000,1160.00
2343,-0.7372000,1120.00
2344,-0.7376000,1160.00
2345,-0.7380000,1120.00
2346,-0.7384000,1160.00
2347,-0.7388000,1120.00
2348,-0.7392000,1160.00
2349,-0.7396000,1120.00
2350,-0.7400000,1160.00
2351,-0.7404000,1120.00
2352,-0.7408000,1160.00
2353,-0.7412000,1120.00
2354,-0.7416000,1160.00
2355,-0.7420000,1120.00
2356,-0.7424000,1160.00
2357,-0.7428000,1120.00
2358,-0.7432000,1160.00
2359,-0.7436000,1120.00
2360,-0.7440000,1160.00
2361,-0.7444000,1120.00
2362,-0.7448000,1160.00
2363,-0.7452000,1120.00
2364,-0.7456000,1160.00
2365,-0.7460000,1120.00
2366,-0.7464000,1160.00
2367,-0.7468000,1120.00
2368,-0.7472000,1160.00
2369,-0.7476000,1120.00
2370,-0.7480000,1160.00
2371,-0.7484000,1120.00
2372,-0.7488000,1160.00
2373,-0.7492000,1120.00
2374,-0.7496000,1160.00
2375,-0.7500000,1120.00
2376,-0.7504000,1160.00
2377,-0.7508000,1120.00
2378,-0.7512000,1160.00
2379,-0.7516000,1120.00
2380,-0.7520000,1160.00
2381,-0.7524000,1100.00
2382,-0.7528000,1160.00
2383,-0.7532000,1120.00
2384,-0.7536000,1160.00
2385,-0.7540000,1120.00
2386,-0.7544000,1140.00
2387,-0.7548000,1120.00
2388,-0.7552000,1160.00
2389,-0.7556000,1120.00
2390,-0.7560000,1160.00
2391,-0.7564000,1120.00
2392,-0.7568000,1160.00
2393,-0.7572000,1120.00
2394,-0.7576000,1160.00
2395,-0.7580000,1100.00
2396,-0.7584000,1160.00
2397,-0.7588000,1120.00
2398,-0.7592000,1140.00
2399,-0.7596000,1100.00
2400,-0.7600000,1140.00
2401,-0.7604000,1120.00
2402,-0.7608000,1160.00
2403,-0.7612000,1120.00
2404,-0.7616000,1160.00
2405,-0.7620000,1100.00
2406,-0.7624000,1160.00
2407,-0.7628000,1120.00
2408,-0.7632000,1140.00
2409,-0.7636000,1120.00
2410,-0.7640000,1160.00
2411,-0.7644000,1100.00
2412,-0.7648000,1140.00
2413,-0.7652000,1100.00
2414,-0.7656000,1140.00
2415,-0.7660000,1100.00
2416,-0.7664000,1140.00
2417,-0.7668000,1100.00
2418,-0.7672000,1140.00
2419,-0.7676000,1100.00
2420,-0.7680000,1140.00
2421,-0.7684000,1100.00
2422,-0.7688000,1120.00
2423,-0.7692000,1100.00
2424,-0.7696000,1120.00
2425,-0.7700000,1100.00
2426,-0.7704000,1140.00
2427,-0.7708000,1100.00
2428,-0.7712000,1140.00
2429,-0.7716000,1100.00
2430,-0.7720000,1140.00
2431,-0.7724000,1100.00
2432,-0.7728000,1140.00
2433,-0.7732000,1100.00
2434,-0.7736000,1120.00
2435,-0.7740000,1100.00
2436,-0.7744000,1140.00
2437,-0.7748000,1100.00
2438,-0.7752000,1120.00
2439,-0.7756000,1100.00
2440,-0.7760000,1120.00
2441,-0.7764000,1100.00
2442,-0.7768000,1120.00
2443,-0.7772000,1100.00
2444,-0.7776000,1120.00
2445,-0.7780000,1100.00
2446,-0.7784000,1120.00
2447,-0.7788000,1080.00
2448,-0.7792000,1120.00
2449,-0.7796000,1080.00
2450,-0.7800000,1120.00
2451,-0.7804000,1100.00
2452,-0.7808000,1140.00
2453,-0.7812000,1100.00
2454,-0.7816000,1120.00
2455,-0.7820000,1100.00
2456,-0.7824000,1120.00
2457,-0.7828000,1100.00
2458,-0.7832000,1120.00
2459,-0.7836000,1100.00
2460,-0.7840000,1120.00
2461,-0.7844000,1080.00
2462,-0.7848000,1120.00
2463,-0.7852000,1080.00
2464,-0.7856000,1120.00
2465,-0.7860000,1080.00
2466,-0.7864000,1120.00
2467,-0.7868000,1080.00
2468,-0.7872000,1120.00
2469,-0.7876000,1080.00
2470,-0.7880000,1120.00
2471,-0.7884000,1080.00
2472,-0.7888000,1120.00
2473,-0.7892000,1080.00
2474,-0.7896000,1120.00
2475,-0.7900000,1080.00
2476,-0.7904000,1120.00
2477,-0.7908000,1080.00
2478,-0.7912000,1120.00
2479,-0.7916000,1080.00
2480,-0.7920000,1120.00
2481,-0.7924000,1080.00
2482,-0.7928000,1120.00
2483,-0.7932000,1080.00
2484,-0.7936000,1120.00
2485,-0.7940000,1080.00
2486,-0.7944000,1120.00
2487,-0.7948000,1080.00
2488,-0.7952000,1120.00
2489,-0.7956000,1080.00
2490,-0.7960000,1120.00
2491,-0.7964000,1080.00
2492,-0.7968000,1120.00
2493,-0.7972000,1080.00
2494,-0.7976000,1120.00
2495,-0.7980000,1080.00
2496,-0.7984000,1120.00
2497,-0.7988000,1080.00
2498,-0.7992000,1120.00
2499,-0.7996000,1080.00
2500,-0.8000000,1120.00
2501,-0.8004000,1080.00
2502,-0.8008000,1120.00
2503,-0.8012000,1080.00
2504,-0.8016000,1120.00
2505,-0.8020000,1060.00
2506,-0.8024000,1120.00
2507,-0.8028000,1080.00
2508,-0.8032000,1120.00
2509,-0.8036000,1080.00
2510,-0.8040000,1120.00
2511,-0.8044000,1080.00
2512,-0.8048000,1120.00
2513,-0.8052000,1080.00
2514,-0.8056000,1120.00
2515,-0.8060000,1080.00
2516,-0.8064000,1120.00
2517,-0.8068000,1080.00
2518,-0.8072000,1120.00
2519,-0.8076000,1060.00
2520,-0.8080000,1120.00
2521,-0.8084000,1080.00
2522,-0.8088000,1120.00
2523,-0.8092000,1080.00
2524,-0.8096000,1120.00
2525,-0.8100000,1060.00
2526,-0.8104000,1120.00
2527,-0.8108000,1080.00
2528,-0.8112000,1120.00
2529,-0.8116000,1060.00
2530,-0.8120000,1100.00
2531,-0.8124000,1060.00
2532,-0.8128000,1120.00
2533,-0.8132000,1080.00
2534,-0.8136000,1100.00
2535,-0.8140000,1060.00
2536,-0.8144000,1120.00
2537,-0.8148000,1060.00
2538,-0.8152000,1100.00
2539,-0.8156000,1060.00
2540,-0.8160000,1120.00
2541,-0.8164000,1080.00
2542,-0.8168000,1120.00
2543,-0.8172000,1080.00
2544,-0.8176000,1120.00
2545,-0.8180000,1060.00
2546,-0.8184000,1100.00
2547,-0.8188000,1040.00
2548,-0.8192000,1100.00
2549,-0.8196000,960.00
2550,-0.8200000,1040.00
2551,-0.8204000,900.00
2552,-0.8208000,1000.00
2553,-0.8212000,840.00
2554,-0.8216000,920.00
2555,-0.8220000,780.00
2556,-0.8224000,860.00
2557,-0.8228000,720.00
2558,-0.8232000,800.00
2559,-0.8236000,680.00
2560,-0.8240000,760.00
2561,-0.8244000,640.00
2562,-0.8248000,700.00
2563,-0.8252000,620.00
2564,-0.8256000,680.00
2565,-0.8260000,580.00
2566,-0.8264000,640.00
2567,-0.8268000,540.00
2568,-0.8272000,600.00
2569,-0.8276000,500.00
2570,-0.8280000,560.00
2571,-0.8284000,480.00
2572,-0.8288000,520.00
2573,-0.8292000,460.00
2574,-0.8296000,500.00
2575,-0.8300000,440.00
2576,-0.8304000,480.00
2577,-0.8308000,400.00
2578,-0.8312000,460.00
2579,-0.8316000,380.00
2580,-0.8320000,440.00
2581,-0.8324000,360.00
2582,-0.8328000,400.00
2583,-0.8332000,360.00
2584,-0.8336000,400.00
2585,-0.8340000,340.00
2586,-0.8344000,380.00
2587,-0.8348000,320.00
2588,-0.8352000,380.00
2589,-0.8356000,320.00
2590,-0.8360000,360.00
2591,-0.8364000,300.00
2592,-0.8368000,340.00
2593,-0.8372000,280.00
2594,-0.8376000,320.00
2595,-0.8380000,280.00
2596,-0.8384000,320.00
2597,-0.8388000,260.00
2598,-0.8392000,300.00
2599,-0.8396000,240.00
2600,-0.8400000,300.00
2601,-0.8404000,240.00
2602,-0.8408000,280.00
2603,-0.8412000,240.00
2604,-0.8416000,280.00
2605,-0.8420000,220.00
2606,-0.8424000,260.00
2607,-0.8428000,200.00
2608,-0.8432000,240.00
2609,-0.8436000,200.00
2610,-0.8440000,240.00
2611,-0.8444000,200.00
2612,-0.8448000,240.00
2613,-0.8452000,180.00
2614,-0.8456000,240.00
2615,-0.8460000,180.00
2616,-0.8464000,220.00
2617,-0.8468000,180.00
2618,-0.8472000,220.00
2619,-0.8476000,160.00
2620,-0.8480000,220.00
2621,-0.8484000,160.00
2622,-0.8488000,220.00
2623,-0.8492000,160.00
2624,-0.8496000,200.00
2625,-0.8500000,160.00
2626,-0.8504000,200.00
2627,-0.8508000,160.00
2628,-0.8512000,200.00
2629,-0.8516000,160.00
2630,-0.8520000,180.00
2631,-0.8524000,140.00
2632,-0.8528000,180.00
2633,-0.8532000,140.00
2634,-0.8536000,160.00
2635,-0.8540000,120.00
2636,-0.8544000,160.00
2637,-0.8548000,120.00
2638,-0.8552000,160.00
2639,-0.8556000,120.00
2640,-0.8560000,160.00
2641,-0.8564000,140.00
2642,-0.8568000,160.00
2643,-0.8572000,120.00
2644,-0.8576000,160.00
2645,-0.8580000,120.00
2646,-0.8584000,160.00
2647,-0.8588000,120.00
2648,-0.8592000,160.00
2649,-0.8596000,120.00
2650,-0.8600000,160.00
2651,-0.8604000,100.00
2652,-0.8608000,160.00
2653,-0.8612000,100.00
2654,-0.8616000,160.00
2655,-0.8620000,100.00
2656,-0.8624000,140.00
2657,-0.8628000,100.00
2658,-0.8632000,140.00
2659,-0.8636000,80.00
2660,-0.8640000,140.00
2661,-0.8644000,80.00
2662,-0.8648000,140.00
2663,-0.8652000,80.00
2664,-0.8656000,140.00
2665,-0.8660000,80.00
2666,-0.8664000,140.00
2667,-0.8668000,80.00
2668,-0.8672000,140.00
2669,-0.8676000,80.00
2670,-0.8680000,120.00
2671,-0.8684000,80.00
2672,-0.8688000,140.00
2673,-0.8692000,80.00
2674,-0.8696000,120.00
2675,-0.8700000,80.00
2676,-0.8704000,120.00
2677,-0.8708000,80.00
2678,-0.8712000,120.00
2679,-0.8716000,80.00
2680,-0.8720000,120.00
2681,-0.8724000,80.00
2682,-0.8728000,120.00
2683,-0.8732000,80.00
2684,-0.8736000,120.00
2685,-0.8740000,60.00
2686,-0.8744000,120.00
2687,-0.8748000,80.00
2688,-0.8752000,120.00
2689,-0.8756000,80.00
2690,-0.8760000,100.00
2691,-0.8764000,60.00
2692,-0.8768000,120.00
2693,-0.8772000,60.00
2694,-0.8776000,120.00
2695,-0.8780000,60.00
2696,-0.8784000,120.00
2697,-0.8788000,60.00
2698,-0.8792000,100.00
2699,-0.8796000,60.00
2700,-0.8800000,120.00
2701,-0.8804000,60.00
2702,-0.8808000,100.00
2703,-0.8812000,60.00
2704,-0.8816000,120.00
2705,-0.8820000,60.00
2706,-0.8824000,100.00
2707,-0.8828000,60.00
2708,-0.8832000,120.00
2709,-0.8836000,60.00
2710,-0.8840000,120.00
2711,-0.8844000,60.00
2712,-0.8848000,100.00
2713,-0.8852000,60.00
2714,-0.8856000,100.00
2715,-0.8860000,60.00
2716,-0.8864000,100.00
2717,-0.8868000,60.00
2718,-0.8872000,100.00
2719,-0.8876000,60.00
2720,-0.8880000,100.00
2721,-0.8884000,60.00
2722,-0.8888000,100.00
2723,-0.8892000,60.00
2724,-0.8896000,80.00
2725,-0.8900000,60.00
2726,-0.8904000,80.00
2727,-0.8908000,60.00
2728,-0.8912000,80.00
2729,-0.8916000,60.00
2730,-0.8920000,80.00
2731,-0.8924000,60.00
2732,-0.8928000,80.00
2733,-0.8932000,60.00
2734,-0.8936000,80.00
2735,-0.8940000,60.00
2736,-0.8944000,80.00
2737,-0.8948000,40.00
2738,-0.8952000,80.00
2739,-0.8956000,60.00
2740,-0.8960000,80.00
2741,-0.8964000,40.00
2742,-0.8968000,80.00
2743,-0.8972000,40.00
2744,-0.8976000,80.00
2745,-0.8980000,40.00
2746,-0.8984000,80.00
2747,-0.8988000,60.00
2748,-0.8992000,80.00
2749,-0.8996000,40.00
2750,-0.9000000,80.00
2751,-0.9004000,40.00
2752,-0.9008000,80.00
2753,-0.9012000,60.00
2754,-0.9016000,80.00
2755,-0.9020000,40.00
2756,-0.9024000,80.00
2757,-0.9028000,40.00
2758,-0.9032000,80.00
2759,-0.9036000,60.00
2760,-0.9040000,80.00
2761,-0.9044000,40.00
2762,-0.9048000,80.00
2763,-0.9052000,60.00
2764,-0.9056000,80.00
2765,-0.9060000,40.00
2766,-0.9064000,80.00
2767,-0.9068000,40.00
2768,-0.9072000,80.00
2769,-0.9076000,60.00
2770,-0.9080000,80.00
2771,-0.9084000,40.00
2772,-0.9088000,80.00
2773,-0.9092000,40.00
2774,-0.9096000,80.00
2775,-0.9100000,40.00
2776,-0.9104000,80.00
2777,-0.9108000,40.00
2778,-0.9112000,80.00
2779,-0.9116000,40.00
2780,-0.9120000,80.00
2781,-0.9124000,40.00
2782,-0.9128000,80.00
2783,-0.9132000,40.00
2784,-0.9136000,80.00
2785,-0.9140000,40.00
2786,-0.9144000,80.00
2787,-0.9148000,40.00
2788,-0.9152000,80.00
2789,-0.9156000,40.00
2790,-0.9160000,80.00
2791,-0.9164000,40.00
2792,-0.9168000,80.00
2793,-0.9172000,40.00
2794,-0.9176000,80.00
2795,-0.9180000,40.00
2796,-0.9184000,80.00
2797,-0.9188000,40.00
2798,-0.9192000,80.00
2799,-0.9196000,40.00
2800,-0.9200000,80.00
2801,-0.9204000,40.00
2802,-0.9208000,80.00
2803,-0.9212000,40.00
2804,-0.9216000,80.00
2805,-0.9220000,20.00
2806,-0.9224000,80.00
2807,-0.9228000,40.00
2808,-0.9232000,80.00
2809,-0.9236000,40.00
2810,-0.9240000,80.00
2811,-0.9244000,40.00
2812,-0.9248000,80.00
2813,-0.9252000,40.00
2814,-0.9256000,80.00
2815,-0.9260000,40.00
2816,-0.9264000,80.00
2817,-0.9268000,40.00
2818,-0.9272000,80.00
2819,-0.9276000,40.00
2820,-0.9280000,80.00
2821,-0.9284000,40.00
2822,-0.9288000,80.00
2823,-0.9292000,40.00
2824,-0.9296000,80.00
2825,-0.9300000,40.00
2826,-0.9304000,80.00
2827,-0.9308000,40.00
2828,-0.9312000,60.00
2829,-0.9316000,40.00
2830,-0.9320000,80.00
2831,-0.9324000,40.00
2832,-0.9328000,60.00
2833,-0.9332000,40.00
2834,-0.9336000,80.00
2835,-0.9340000,40.00
2836,-0.9344000,80.00
2837,-0.9348000,40.00
2838,-0.9352000,80.00
2839,-0.9356000,40.00
2840,-0.9360000,80.00
2841,-0.9364000,40.00
2842,-0.9368000,60.00
2843,-0.9372000,40.00
2844,-0.9376000,80.00
2845,-0.9380000,40.00
2846,-0.9384000,80.00
2847,-0.9388000,40.00
2848,-0.9392000,80.00
2849,-0.9396000,40.00
2850,-0.9400000,80.00
2851,-0.9404000,40.00
2852,-0.9408000,80.00
2853,-0.9412000,40.00
2854,-0.9416000,60.00
2855,-0.9420000,40.00
2856,-0.9424000,60.00
2857,-0.9428000,40.00
2858,-0.9432000,80.00
2859,-0.9436000,40.00
2860,-0.9440000,60.00
2861,-0.9444000,40.00
2862,-0.9448000,60.00
2863,-0.9452000,40.00
2864,-0.9456000,60.00
2865,-0.9460000,40.00
2866,-0.9464000,80.00
2867,-0.9468000,20.00
2868,-0.9472000,80.00
2869,-0.9476000,40.00
2870,-0.9480000,60.00
2871,-0.9484000,40.00
2872,-0.9488000,80.00
2873,-0.9492000,20.00
2874,-0.9496000,80.00
2875,-0.9500000,40.00
2876,-0.9504000,80.00
2877,-0.9508000,40.00
2878,-0.9512000,80.00
2879,-0.9516000,40.00
2880,-0.9520000,60.00
2881,-0.9524000,40.00
2882,-0.9528000,80.00
2883,-0.9532000,20.00
2884,-0.9536000,60.00
2885,-0.9540000,40.00
2886,-0.9544000,60.00
2887,-0.9548000,40.00
2888,-0.9552000,80.00
2889,-0.9556000,40.00
2890,-0.9560000,80.00
2891,-0.9564000,40.00
2892,-0.9568000,60.00
2893,-0.9572000,40.00
2894,-0.9576000,60.00
2895,-0.9580000,40.00
2896,-0.9584000,80.00
2897,-0.9588000,40.00
2898,-0.9592000,60.00
2899,-0.9596000,40.00
2900,-0.9600000,80.00
2901,-0.9604000,40.00
2902,-0.9608000,80.00
2903,-0.9612000,40.00
2904,-0.9616000,60.00
2905,-0.9620000,20.00
2906,-0.9624000,80.00
2907,-0.9628000,40.00
2908,-0.9632000,80.00
2909,-0.9636000,40.00
2910,-0.9640000,60.00
2911,-0.9644000,40.00
2912,-0.9648000,60.00
2913,-0.9652000,20.00
2914,-0.9656000,60.00
2915,-0.9660000,40.00
2916,-0.9664000,60.00
2917,-0.9668000,20.00
2918,-0.9672000,60.00
2919,-0.9676000,40.00
2920,-0.9680000,60.00
2921,-0.9684000,20.00
2922,-0.9688000,60.00
2923,-0.9692000,40.00
2924,-0.9696000,60.00
2925,-0.9700000,40.00
2926,-0.9704000,80.00
2927,-0.9708000,40.00
2928,-0.9712000,60.00
2929,-0.9716000,40.00
2930,-0.9720000,60.00
2931,-0.9724000,40.00
2932,-0.9728000,60.00
2933,-0.9732000,40.00
2934,-0.9736000,60.00
2935,-0.9740000,20.00
2936,-0.9744000,60.00
2937,-0.9748000,40.00
2938,-0.9752000,60.00
2939,-0.9756000,40.00
2940,-0.9760000,80.00
2941,-0.9764000,20.00
2942,-0.9768000,60.00
2943,-0.9772000,40.00
2944,-0.9776000,60.00
2945,-0.9780000,40.00
2946,-0.9784000,60.00
2947,-0.9788000,20.00
2948,-0.9792000,60.00
2949,-0.9796000,40.00
2950,-0.9800000,80.00
2951,-0.9804000,40.00
2952,-0.9808000,60.00
2953,-0.9812000,40.00
2954,-0.9816000,80.00
2955,-0.9820000,40.00
2956,-0.9824000,80.00
2957,-0.9828000,40.00
2958,-0.9832000,60.00
2959,-0.9836000,40.00
2960,-0.9840000,60.00
2961,-0.9844000,40.00
2962,-0.9848000,60.00
2963,-0.9852000,40.00
2964,-0.9856000,60.00
2965,-0.9860000,40.00
2966,-0.9864000,60.00
2967,-0.9868000,0.00
2968,-0.9872000,60.00
2969,-0.9876000,20.00
2970,-0.9880000,60.00
2971,-0.9884000,20.00
2972,-0.9888000,80.00
2973,-0.9892000,40.00
2974,-0.9896000,60.00
2975,-0.9900000,20.00
2976,-0.9904000,80.00
2977,-0.9908000,20.00
2978,-0.9912000,60.00
2979,-0.9916000,20.00
2980,-0.9920000,80.00
2981,-0.9924000,20.00
2982,-0.9928000,60.00
2983,-0.9932000,40.00
2984,-0.9936000,60.00
2985,-0.9940000,20.00
2986,-0.9944000,60.00
2987,-0.9948000,40.00
2988,-0.9952000,60.00
2989,-0.9956000,40.00
2990,-0.9960000,60.00
2991,-0.9964000,40.00
2992,-0.9968000,60.00
2993,-0.9972000,20.00
2994,-0.9976000,60.00
2995,-0.9980000,40.00
2996,-0.9984000,60.00
2997,-0.9988000,20.00
2998,-0.9992000,60.00
2999,-0.9996000,20.00
3000,-1.0000000,80.00
3001,-1.0004000,40.00
3002,-1.0008000,60.00
3003,-1.0012000,20.00
3004,-1.0016000,60.00
3005,-1.0020000,40.00
3006,-1.0024000,80.00
3007,-1.0028000,20.00
3008,-1.0032000,60.00
3009,-1.0036000,20.00
3010,-1.0040000,60.00
3011,-1.0044000,20.00
3012,-1.0048000,60.00
3013,-1.0052000,20.00
3014,-1.0056000,60.00
3015,-1.0060000,20.00
3016,-1.0064000,80.00
3017,-1.0068000,40.00
3018,-1.0072000,60.00
3019,-1.0076000,20.00
3020,-1.0080000,60.00
3021,-1.0084000,40.00
3022,-1.0088000,60.00
3023,-1.0092000,20.00
3024,-1.0096000,60.00
3025,-1.0100000,20.00
3026,-1.0104000,60.00
3027,-1.0108000,20.00
3028,-1.0112000,60.00
3029,-1.0116000,20.00
3030,-1.0120000,60.00
3031,-1.0124000,20.00
3032,-1.0128000,60.00
3033,-1.0132000,20.00
3034,-1.0136000,60.00
3035,-1.0140000,40.00
3036,-1.0144000,60.00
3037,-1.0148000,20.00
3038,-1.0152000,60.00
3039,-1.0156000,20.00
3040,-1.0160000,60.00
3041,-1.0164000,20.00
3042,-1.0168000,60.00
3043,-1.0172000,40.00
3044,-1.0176000,60.00
3045,-1.0180000,20.00
3046,-1.0184000,60.00
3047,-1.0188000,20.00
3048,-1.0192000,60.00
3049,-1.0196000,20.00
3050,-1.0200000,60.00
3051,-1.0204000,40.00
3052,-1.0208000,80.00
3053,-1.0212000,0.00
3054,-1.0216000,60.00
3055,-1.0220000,20.00
3056,-1.0224000,60.00
3057,-1.0228000,40.00
3058,-1.0232000,60.00
3059,-1.0236000,40.00
3060,-1.0240000,60.00
3061,-1.0244000,20.00
3062,-1.0248000,60.00
3063,-1.0252000,20.00
3064,-1.0256000,60.00
3065,-1.0260000,20.00
3066,-1.0264000,60.00
3067,-1.0268000,20.00
3068,-1.0272000,60.00
3069,-1.0276000,20.00
3070,-1.0280000,60.00
3071,-1.0284000,20.00
3072,-1.0288000,60.00
3073,-1.0292000,40.00
3074,-1.0296000,60.00
3075,-1.0300000,20.00
3076,-1.0304000,60.00
3077,-1.0308000,20.00
3078,-1.0312000,80.00
3079,-1.0316000,20.00
3080,-1.0320000,60.00
3081,-1.0324000,20.00
3082,-1.0328000,60.00
3083,-1.0332000,20.00
3084,-1.0336000,60.00
3085,-1.0340000,40.00
3086,-1.0344000,60.00
3087,-1.0348000,20.00
3088,-1.0352000,80.00
3089,-1.0356000,20.00
3090,-1.0360000,60.00
3091,-1.0364000,40.00
3092,-1.0368000,60.00
3093,-1.0372000,40.00
3094,-1.0376000,60.00
3095,-1.0380000,20.00
3096,-1.0384000,60.00
3097,-1.0388000,20.00
3098,-1.0392000,60.00
3099,-1.0396000,40.00
3100,-1.0400000,60.00
3101,-1.0404000,20.00
3102,-1.0408000,60.00
3103,-1.0412000,20.00
3104,-1.0416000,60.00
3105,-1.0420000,20.00
3106,-1.0424000,60.00
3107,-1.0428000,40.00
3108,-1.0432000,60.00
3109,-1.0436000,40.00
3110,-1.0440000,60.00
3111,-1.0444000,20.00
3112,-1.0448000,60.00
3113,-1.0452000,20.00
3114,-1.0456000,60.00
3115,-1.0460000,20.00
3116,-1.0464000,60.00
3117,-1.0468000,20.00
3118,-1.0472000,60.00
3119,-1.0476000,20.00
3120,-1.0480000,60.00
3121,-1.0484000,40.00
3122,-1.0488000,60.00
3123,-1.0492000,0.00
3124,-1.0496000,60.00
3125,-1.0500000,20.00
3126,-1.0504000,80.00
3127,-1.0508000,20.00
3128,-1.0512000,60.00
3129,-1.0516000,40.00
3130,-1.0520000,60.00
3131,-1.0524000,40.00
3132,-1.0528000,60.00
3133,-1.0532000,20.00
3134,-1.0536000,60.00
3135,-1.0540000,20.00
3136,-1.0544000,60.00
3137,-1.0548000,20.00
3138,-1.0552000,60.00
3139,-1.0556000,20.00
3140,-1.0560000,60.00
3141,-1.0564000,20.00
3142,-1.0568000,60.00
3143,-1.0572000,20.00
3144,-1.0576000,60.00
3145,-1.0580000,20.00
3146,-1.0584000,80.00
3147,-1.0588000,20.00
3148,-1.0592000,60.00
3149,-1.0596000,20.00
3150,-1.0600000,60.00
3151,-1.0604000,40.00
3152,-1.0608000,60.00
3153,-1.0612000,20.00
3154,-1.0616000,60.00
3155,-1.0620000,20.00
3156,-1.0624000,60.00
3157,-1.0628000,40.00
3158,-1.0632000,60.00
3159,-1.0636000,20.00
3160,-1.0640000,60.00
3161,-1.0644000,40.00
3162,-1.0648000,60.00
3163,-1.0652000,20.00
3164,-1.0656000,60.00
3165,-1.0660000,40.00
3166,-1.0664000,60.00
3167,-1.0668000,20.00
3168,-1.0672000,60.00
3169,-1.0676000,20.00
3170,-1.0680000,80.00
3171,-1.0684000,0.00
3172,-1.0688000,60.00
3173,-1.0692000,40.00
3174,-1.0696000,80.00
3175,-1.0700000,20.00
3176,-1.0704000,60.00
3177,-1.0708000,40.00
3178,-1.0712000,60.00
3179,-1.0716000,40.00
3180,-1.0720000,60.00
3181,-1.0724000,20.00
3182,-1.0728000,60.00
3183,-1.0732000,20.00
3184,-1.0736000,60.00
3185,-1.0740000,20.00
3186,-1.0744000,60.00
3187,-1.0748000,40.00
3188,-1.0752000,60.00
3189,-1.0756000,20.00
3190,-1.0760000,60.00
3191,-1.0764000,40.00
3192,-1.0768000,60.00
3193,-1.0772000,20.00
3194,-1.0776000,60.00
3195,-1.0780000,20.00
3196,-1.0784000,60.00
3197,-1.0788000,20.00
3198,-1.0792000,60.00
3199,-1.0796000,20.00
3200,-1.0800000,60.00
3201,-1.0804000,20.00
3202,-1.0808000,60.00
3203,-1.0812000,20.00
3204,-1.0816000,60.00
3205,-1.0820000,20.00
3206,-1.0824000,60.00
3207,-1.0828000,20.00
3208,-1.0832000,60.00
3209,-1.0836000,20.00
3210,-1.0840000,60.00
3211,-1.0844000,20.00
3212,-1.0848000,60.00
3213,-1.0852000,20.00
3214,-1.0856000,60.00
3215,-1.0860000,20.00
3216,-1.0864000,60.00
3217,-1.0868000,20.00
3218,-1.0872000,60.00
3219,-1.0876000,20.00
3220,-1.0880000,80.00
3221,-1.0884000,20.00
3222,-1.0888000,60.00
3223,-1.0892000,20.00
3224,-1.0896000,60.00
3225,-1.0900000,20.00
3226,-1.0904000,60.00
3227,-1.0908000,20.00
3228,-1.0912000,60.00
3229,-1.0916000,20.00
3230,-1.0920000,60.00
3231,-1.0924000,20.00
3232,-1.0928000,60.00
3233,-1.0932000,20.00
3234,-1.0936000,60.00
3235,-1.0940000,20.00
3236,-1.0944000,60.00
3237,-1.0948000,20.00
3238,-1.0952000,60.00
3239,-1.0956000,40.00
3240,-1.0960000,60.00
3241,-1.0964000,20.00
3242,-1.0968000,60.00
3243,-1.0972000,20.00
3244,-1.0976000,60.00
3245,-1.0980000,20.00
3246,-1.0984000,60.00
3247,-1.0988000,20.00
3248,-1.0992000,60.00
3249,-1.0996000,20.00
3250,-1.1000000,60.00
3251,-1.1004000,40.00
3252,-1.1008000,60.00
3253,-1.1012000,20.00
3254,-1.1016000,60.00
3255,-1.1020000,20.00
3256,-1.1024000,80.00
3257,-1.1028000,20.00
3258,-1.1032000,60.00
3259,-1.1036000,20.00
3260,-1.1040000,60.00
3261,-1.1044000,20.00
3262,-1.1048000,60.00
3263,-1.1052000,20.00
3264,-1.1056000,60.00
3265,-1.1060000,20.00
3266,-1.1064000,60.00
3267,-1.1068000,20.00
3268,-1.1072000,60.00
3269,-1.1076000,20.00
3270,-1.1080000,60.00
3271,-1.1084000,20.00
3272,-1.1088000,60.00
3273,-1.1092000,20.00
3274,-1.1096000,60.00
3275,-1.1100000,20.00
3276,-1.1104000,60.00
3277,-1.1108000,20.00
3278,-1.1112000,60.00
3279,-1.1116000,20.00
3280,-1.1120000,60.00
3281,-1.1124000,20.00
3282,-1.1128000,60.00
3283,-1.1132000,20.00
3284,-1.1136000,60.00
3285,-1.1140000,20.00
3286,-1.1144000,60.00
3287,-1.1148000,20.00
3288,-1.1152000,60.00
3289,-1.1156000,20.00
3290,-1.1160000,60.00
3291,-1.1164000,20.00
3292,-1.1168000,60.00
3293,-1.1172000,20.00
3294,-1.1176000,60.00
3295,-1.1180000,20.00
3296,-1.1184000,60.00
3297,-1.1188000,20.00
3298,-1.1192000,60.00
3299,-1.1196000,20.00
3300,-1.1200000,60.00
3301,-1.1204000,20.00
3302,-1.1208000,60.00
3303,-1.1212000,20.00
3304,-1.1216000,60.00
3305,-1.1220000,20.00
3306,-1.1224000,60.00
3307,-1.1228000,20.00
3308,-1.1232000,60.00
3309,-1.1236000,20.00
3310,-1.1240000,60.00
3311,-1.1244000,20.00
3312,-1.1248000,60.00
3313,-1.1252000,20.00
3314,-1.1256000,60.00
3315,-1.1260000,20.00
3316,-1.1264000,60.00
3317,-1.1268000,20.00
3318,-1.1272000,60.00
3319,-1.1276000,20.00
3320,-1.1280000,60.00
3321,-1.1284000,20.00
3322,-1.1288000,60.00
3323,-1.1292000,20.00
3324,-1.1296000,60.00
3325,-1.1300000,40.00
3326,-1.1304000,60.00
3327,-1.1308000,20.00
3328,-1.1312000,60.00
3329,-1.1316000,20.00
3330,-1.1320000,60.00
3331,-1.1324000,40.00
3332,-1.1328000,60.00
3333,-1.1332000,20.00
3334,-1.1336000,60.00
3335,-1.1340000,20.00
3336,-1.1344000,60.00
3337,-1.1348000,20.00
3338,-1.1352000,60.00
3339,-1.1356000,20.00
3340,-1.1360000,60.00
3341,-1.1364000,40.00
3342,-1.1368000,60.00
3343,-1.1372000,20.00
3344,-1.1376000,60.00
3345,-1.1380000,20.00
3346,-1.1384000,60.00
3347,-1.1388000,20.00
3348,-1.1392000,60.00
3349,-1.1396000,20.00
3350,-1.1400000,60.00
3351,-1.1404000,20.00
3352,-1.1408000,60.00
3353,-1.1412000,20.00
3354,-1.1416000,60.00
3355,-1.1420000,20.00
3356,-1.1424000,60.00
3357,-1.1428000,20.00
3358,-1.1432000,60.00
3359,-1.1436000,20.00
3360,-1.1440000,60.00
3361,-1.1444000,20.00
3362,-1.1448000,60.00
3363,-1.1452000,20.00
3364,-1.1456000,60.00
3365,-1.1460000,20.00
3366,-1.1464000,60.00
3367,-1.1468000,20.00
3368,-1.1472000,60.00
3369,-1.1476000,20.00
3370,-1.1480000,60.00
3371,-1.1484000,20.00
3372,-1.1488000,60.00
3373,-1.1492000,20.00
3374,-1.1496000,60.00
3375,-1.1500000,20.00
3376,-1.1504000,60.00
3377,-1.1508000,20.00
3378,-1.1512000,60.00
3379,-1.1516000,20.00
3380,-1.1520000,60.00
3381,-1.1524000,20.00
3382,-1.1528000,60.00
3383,-1.1532000,40.00
3384,-1.1536000,60.00
3385,-1.1540000,20.00
3386,-1.1544000,60.00
3387,-1.1548000,20.00
3388,-1.1552000,60.00
3389,-1.1556000,20.00
3390,-1.1560000,60.00
3391,-1.1564000,20.00
3392,-1.1568000,60.00
3393,-1.1572000,20.00
3394,-1.1576000,60.00
3395,-1.1580000,40.00
3396,-1.1584000,60.00
3397,-1.1588000,20.00
3398,-1.1592000,60.00
3399,-1.1596000,20.00
3400,-1.1600000,60.00
3401,-1.1604000,20.00
3402,-1.1608000,60.00
3403,-1.1612000,40.00
3404,-1.1616000,60.00
3405,-1.1620000,20.00
3406,-1.1624000,60.00
3407,-1.1628000,20.00
3408,-1.1632000,60.00
3409,-1.1636000,20.00
3410,-1.1640000,60.00
3411,-1.1644000,20.00
3412,-1.1648000,60.00
3413,-1.1652000,20.00
3414,-1.1656000,60.00
3415,-1.1660000,20.00
3416,-1.1664000,60.00
3417,-1.1668000,20.00
3418,-1.1672000,60.00
3419,-1.1676000,20.00
3420,-1.1680000,60.00
3421,-1.1684000,20.00
3422,-1.1688000,60.00
3423,-1.1692000,20.00
3424,-1.1696000,60.00
3425,-1.1700000,20.00
3426,-1.1704000,60.00
3427,-1.1708000,20.00
3428,-1.1712000,60.00
3429,-1.1716000,20.00
3430,-1.1720000,60.00
3431,-1.1724000,20.00
3432,-1.1728000,60.00
3433,-1.1732000,20.00
3434,-1.1736000,60.00
3435,-1.1740000,20.00
3436,-1.1744000,60.00
3437,-1.1748000,20.00
3438,-1.1752000,60.00
3439,-1.1756000,20.00
3440,-1.1760000,60.00
3441,-1.1764000,20.00
3442,-1.1768000,60.00
3443,-1.1772000,20.00
3444,-1.1776000,60.00
3445,-1.1780000,20.00
3446,-1.1784000,60.00
3447,-1.1788000,20.00
3448,-1.1792000,60.00
3449,-1.1796000,20.00
3450,-1.1800000,60.00
3451,-1.1804000,20.00
3452,-1.1808000,60.00
3453,-1.1812000,20.00
3454,-1.1816000,60.00
3455,-1.1820000,20.00
3456,-1.1824000,60.00
3457,-1.1828000,20.00
3458,-1.1832000,60.00
3459,-1.1836000,20.00
3460,-1.1840000,60.00
3461,-1.1844000,20.00
3462,-1.1848000,60.00
3463,-1.1852000,20.00
3464,-1.1856000,60.00
3465,-1.1860000,0.00
3466,-1.1864000,60.00
3467,-1.1868000,20.00
3468,-1.1872000,60.00
3469,-1.1876000,20.00
3470,-1.1880000,60.00
3471,-1.1884000,0.00
3472,-1.1888000,60.00
3473,-1.1892000,20.00
3474,-1.1896000,60.00
3475,-1.1900000,20.00
3476,-1.1904000,60.00
3477,-1.1908000,20.00
3478,-1.1912000,60.00
3479,-1.1916000,20.00
3480,-1.1920000,60.00
3481,-1.1924000,0.00
3482,-1.1928000,80.00
3483,-1.1932000,20.00
3484,-1.1936000,60.00
3485,-1.1940000,20.00
3486,-1.1944000,60.00
3487,-1.1948000,20.00
3488,-1.1952000,60.00
3489,-1.1956000,20.00
3490,-1.1960000,60.00
3491,-1.1964000,20.00
3492,-1.1968000,60.00
3493,-1.1972000,20.00
3494,-1.1976000,60.00
3495,-1.1980000,20.00
3496,-1.1984000,60.00
3497,-1.1988000,20.00
3498,-1.1992000,60.00
3499,-1.1996000,20.00
3500,-1.2000000,60.00
3501,-1.2004000,20.00
3502,-1.2008000,60.00
3503,-1.2012000,20.00
3504,-1.2016000,60.00
3505,-1.2020000,20.00
3506,-1.2024000,60.00
3507,-1.2028000,20.00
3508,-1.2032000,60.00
3509,-1.2036000,20.00
3510,-1.2040000,60.00
3511,-1.2044000,20.00
3512,-1.2048000,60.00
3513,-1.2052000,20.00
3514,-1.2056000,60.00
3515,-1.2060000,20.00
3516,-1.2064000,60.00
3517,-1.2068000,20.00
3518,-1.2072000,60.00
3519,-1.2076000,20.00
3520,-1.2080000,60.00
3521,-1.2084000,20.00
3522,-1.2088000,60.00
3523,-1.2092000,20.00
3524,-1.2096000,60.00
3525,-1.2100000,40.00
3526,-1.2104000,60.00
3527,-1.2108000,20.00
3528,-1.2112000,60.00
3529,-1.2116000,20.00
3530,-1.2120000,60.00
3531,-1.2124000,40.00
3532,-1.2128000,60.00
3533,-1.2132000,20.00
3534,-1.2136000,60.00
3535,-1.2140000,20.00
3536,-1.2144000,60.00
3537,-1.2148000,20.00
3538,-1.2152000,60.00
3539,-1.2156000,20.00
3540,-1.2160000,60.00
3541,-1.2164000,20.00
3542,-1.2168000,60.00
3543,-1.2172000,20.00
3544,-1.2176000,60.00
3545,-1.2180000,20.00
3546,-1.2184000,60.00
3547,-1.2188000,20.00
3548,-1.2192000,60.00
3549,-1.2196000,20.00
3550,-1.2200000,60.00
3551,-1.2204000,20.00
3552,-1.2208000,60.00
3553,-1.2212000,20.00
3554,-1.2216000,60.00
3555,-1.2220000,20.00
3556,-1.2224000,60.00
3557,-1.2228000,20.00
3558,-1.2232000,60.00
3559,-1.2236000,20.00
3560,-1.2240000,60.00
3561,-1.2244000,20.00
3562,-1.2248000,60.00
3563,-1.2252000,40.00
3564,-1.2256000,60.00
3565,-1.2260000,20.00
3566,-1.2264000,60.00
3567,-1.2268000,20.00
3568,-1.2272000,60.00
3569,-1.2276000,20.00
3570,-1.2280000,60.00
3571,-1.2284000,20.00
3572,-1.2288000,60.00
3573,-1.2292000,40.00
3574,-1.2296000,60.00
3575,-1.2300000,20.00
3576,-1.2304000,60.00
3577,-1.2308000,20.00
3578,-1.2312000,60.00
3579,-1.2316000,20.00
3580,-1.2320000,60.00
3581,-1.2324000,20.00
3582,-1.2328000,60.00
3583,-1.2332000,20.00
3584,-1.2336000,60.00
3585,-1.2340000,20.00
3586,-1.2344000,60.00
3587,-1.2348000,20.00
3588,-1.2352000,60.00
3589,-1.2356000,20.00
3590,-1.2360000,60.00
3591,-1.2364000,40.00
3592,-1.2368000,80.00
3593,-1.2372000,20.00
3594,-1.2376000,60.00
3595,-1.2380000,20.00
3596,-1.2384000,60.00
3597,-1.2388000,20.00
3598,-1.2392000,60.00
3599,-1.2396000,20.00
3600,-1.2400000,60.00
3601,-1.2404000,20.00
3602,-1.2408000,60.00
3603,-1.2412000,0.00
3604,-1.2416000,60.00
3605,-1.2420000,20.00
3606,-1.2424000,60.00
3607,-1.2428000,40.00
3608,-1.2432000,60.00
3609,-1.2436000,20.00
3610,-1.2440000,60.00
3611,-1.2444000,20.00
3612,-1.2448000,60.00
3613,-1.2452000,0.00
3614,-1.2456000,60.00
3615,-1.2460000,20.00
3616,-1.2464000,60.00
3617,-1.2468000,20.00
3618,-1.2472000,60.00
3619,-1.2476000,20.00
3620,-1.2480000,60.00
3621,-1.2484000,20.00
3622,-1.2488000,60.00
3623,-1.2492000,20.00
3624,-1.2496000,60.00
3625,-1.2500000,20.00
3626,-1.2504000,60.00
3627,-1.2508000,40.00
3628,-1.2512000,60.00
3629,-1.2516000,20.00
3630,-1.2520000,60.00
3631,-1.2524000,20.00
3632,-1.2528000,60.00
3633,-1.2532000,20.00
3634,-1.2536000,60.00
3635,-1.2540000,20.00
3636,-1.2544000,60.00
3637,-1.2548000,20.00
3638,-1.2552000,60.00
3639,-1.2556000,20.00
3640,-1.2560000,60.00
3641,-1.2564000,20.00
3642,-1.2568000,60.00
3643,-1.2572000,20.00
3644,-1.2576000,60.00
3645,-1.2580000,40.00
3646,-1.2584000,60.00
3647,-1.2588000,40.00
3648,-1.2592000,60.00
3649,-1.2596000,20.00
3650,-1.2600000,60.00
3651,-1.2604000,0.00
3652,-1.2608000,60.00
3653,-1.2612000,20.00
3654,-1.2616000,60.00
3655,-1.2620000,20.00
3656,-1.2624000,60.00
3657,-1.2628000,20.00
3658,-1.2632000,60.00
3659,-1.2636000,20.00
3660,-1.2640000,60.00
3661,-1.2644000,20.00
3662,-1.2648000,80.00
3663,-1.2652000,20.00
3664,-1.2656000,60.00
3665,-1.2660000,20.00
3666,-1.2664000,60.00
3667,-1.2668000,20.00
3668,-1.2672000,60.00
3669,-1.2676000,20.00
3670,-1.2680000,60.00
3671,-1.2684000,20.00
3672,-1.2688000,60.00
3673,-1.2692000,20.00
3674,-1.2696000,60.00
3675,-1.2700000,20.00
3676,-1.2704000,60.00
3677,-1.2708000,20.00
3678,-1.2712000,60.00
3679,-1.2716000,20.00
3680,-1.2720000,60.00
3681,-1.2724000,20.00
3682,-1.2728000,60.00
3683,-1.2732000,0.00
3684,-1.2736000,60.00
3685,-1.2740000,20.00
3686,-1.2744000,60.00
3687,-1.2748000,20.00
3688,-1.2752000,60.00
3689,-1.2756000,20.00
3690,-1.2760000,60.00
3691,-1.2764000,20.00
3692,-1.2768000,60.00
3693,-1.2772000,20.00
3694,-1.2776000,80.00
3695,-1.2780000,20.00
3696,-1.2784000,60.00
3697,-1.2788000,20.00
3698,-1.2792000,60.00
3699,-1.2796000,20.00
3700,-1.2800000,60.00
3701,-1.2804000,20.00
3702,-1.2808000,60.00
3703,-1.2812000,20.00
3704,-1.2816000,60.00
3705,-1.2820000,20.00
3706,-1.2824000,60.00
3707,-1.2828000,20.00
3708,-1.2832000,60.00
3709,-1.2836000,20.00
3710,-1.2840000,60.00
3711,-1.2844000,20.00
3712,-1.2848000,80.00
3713,-1.2852000,20.00
3714,-1.2856000,60.00
3715,-1.2860000,20.00
3716,-1.2864000,60.00
3717,-1.2868000,20.00
3718,-1.2872000,60.00
3719,-1.2876000,20.00
3720,-1.2880000,60.00
3721,-1.2884000,20.00
3722,-1.2888000,60.00
3723,-1.2892000,20.00
3724,-1.2896000,60.00
3725,-1.2900000,20.00
3726,-1.2904000,60.00
3727,-1.2908000,20.00
3728,-1.2912000,60.00
3729,-1.2916000,20.00
3730,-1.2920000,60.00
3731,-1.2924000,20.00
3732,-1.2928000,60.00
3733,-1.2932000,20.00
3734,-1.2936000,60.00
3735,-1.2940000,40.00
3736,-1.2944000,60.00
3737,-1.2948000,20.00
3738,-1.2952000,60.00
3739,-1.2956000,20.00
3740,-1.2960000,60.00
3741,-1.2964000,20.00
3742,-1.2968000,60.00
3743,-1.2972000,40.00
3744,-1.2976000,60.00
3745,-1.2980000,20.00
3746,-1.2984000,60.00
3747,-1.2988000,20.00
3748,-1.2992000,60.00
3749,-1.2996000,40.00
3750,-1.3000000,60.00
3751,-1.3004000,20.00
3752,-1.3008000,60.00
3753,-1.3012000,20.00
3754,-1.3016000,60.00
3755,-1.3020000,20.00
3756,-1.3024000,60.00
3757,-1.3028000,20.00
3758,-1.3032000,60.00
3759,-1.3036000,20.00
3760,-1.3040000,60.00
3761,-1.3044000,20.00
3762,-1.3048000,60.00
3763,-1.3052000,20.00
3764,-1.3056000,60.00
3765,-1.3060000,20.00
3766,-1.3064000,60.00
3767,-1.3068000,20.00
3768,-1.3072000,80.00
3769,-1.3076000,20.00
3770,-1.3080000,60.00
3771,-1.3084000,20.00
3772,-1.3088000,60.00
3773,-1.3092000,0.00
3774,-1.3096000,60.00
3775,-1.3100000,20.00
3776,-1.3104000,60.00
3777,-1.3108000,20.00
3778,-1.3112000,60.00
3779,-1.3116000,20.00
3780,-1.3120000,60.00
3781,-1.3124000,20.00
3782,-1.3128000,60.00
3783,-1.3132000,0.00
3784,-1.3136000,60.00
3785,-1.3140000,20.00
3786,-1.3144000,60.00
3787,-1.3148000,20.00
3788,-1.3152000,60.00
3789,-1.3156000,20.00
3790,-1.3160000,60.00
3791,-1.3164000,20.00
3792,-1.3168000,60.00
3793,-1.3172000,20.00
3794,-1.3176000,60.00
3795,-1.3180000,20.00
3796,-1.3184000,60.00
3797,-1.3188000,20.00
3798,-1.3192000,60.00
3799,-1.3196000,40.00
3800,-1.3200000,60.00
3801,-1.3204000,20.00
3802,-1.3208000,60.00
3803,-1.3212000,20.00
3804,-1.3216000,60.00
3805,-1.3220000,40.00
3806,-1.3224000,60.00
3807,-1.3228000,20.00
3808,-1.3232000,60.00
3809,-1.3236000,20.00
3810,-1.3240000,60.00
3811,-1.3244000,20.00
3812,-1.3248000,60.00
3813,-1.3252000,20.00
3814,-1.3256000,60.00
3815,-1.3260000,40.00
3816,-1.3264000,60.00
3817,-1.3268000,20.00
3818,-1.3272000,60.00
3819,-1.3276000,20.00
3820,-1.3280000,60.00
3821,-1.3284000,20.00
3822,-1.3288000,60.00
3823,-1.3292000,20.00
3824,-1.3296000,60.00
3825,-1.3300000,20.00
3826,-1.3304000,60.00
3827,-1.3308000,20.00
3828,-1.3312000,60.00
3829,-1.3316000,20.00
3830,-1.3320000,60.00
3831,-1.3324000,20.00
3832,-1.3328000,60.00
3833,-1.3332000,20.00
3834,-1.3336000,60.00
3835,-1.3340000,20.00
3836,-1.3344000,60.00
3837,-1.3348000,20.00
3838,-1.3352000,60.00
3839,-1.3356000,20.00
3840,-1.3360000,60.00
3841,-1.3364000,20.00
3842,-1.3368000,60.00
3843,-1.3372000,20.00
3844,-1.3376000,60.00
3845,-1.3380000,40.00
3846,-1.3384000,60.00
3847,-1.3388000,20.00
3848,-1.3392000,60.00
3849,-1.3396000,20.00
3850,-1.3400000,80.00
3851,-1.3404000,20.00
3852,-1.3408000,60.00
3853,-1.3412000,20.00
3854,-1.3416000,60.00
3855,-1.3420000,20.00
3856,-1.3424000,60.00
3857,-1.3428000,20.00
3858,-1.3432000,60.00
3859,-1.3436000,20.00
3860,-1.3440000,60.00
3861,-1.3444000,20.00
3862,-1.3448000,60.00
3863,-1.3452000,20.00
3864,-1.3456000,60.00
3865,-1.3460000,20.00
3866,-1.3464000,60.00
3867,-1.3468000,20.00
3868,-1.3472000,60.00
3869,-1.3476000,20.00
3870,-1.3480000,60.00
3871,-1.3484000,20.00
3872,-1.3488000,60.00
3873,-1.3492000,20.00
3874,-1.3496000,60.00
3875,-1.3500000,40.00
3876,-1.3504000,60.00
3877,-1.3508000,20.00
3878,-1.3512000,60.00
3879,-1.3516000,20.00
3880,-1.3520000,60.00
3881,-1.3524000,20.00
3882,-1.3528000,60.00
3883,-1.3532000,40.00
3884,-1.3536000,60.00
3885,-1.3540000,20.00
3886,-1.3544000,60.00
3887,-1.3548000,20.00
3888,-1.3552000,60.00
3889,-1.3556000,40.00
3890,-1.3560000,60.00
3891,-1.3564000,20.00
3892,-1.3568000,60.00
3893,-1.3572000,20.00
3894,-1.3576000,60.00
3895,-1.3580000,20.00
3896,-1.3584000,60.00
3897,-1.3588000,20.00
3898,-1.3592000,60.00
3899,-1.3596000,40.00
3900,-1.3600000,60.00
3901,-1.3604000,20.00
3902,-1.3608000,60.00
3903,-1.3612000,20.00
3904,-1.3616000,60.00
3905,-1.3620000,20.00
3906,-1.3624000,60.00
3907,-1.3628000,20.00
3908,-1.3632000,80.00
3909,-1.3636000,20.00
3910,-1.3640000,60.00
3911,-1.3644000,20.00
3912,-1.3648000,60.00
3913,-1.3652000,20.00
3914,-1.3656000,60.00
3915,-1.3660000,20.00
3916,-1.3664000,60.00
3917,-1.3668000,20.00
3918,-1.3672000,60.00
3919,-1.3676000,20.00
3920,-1.3680000,60.00
3921,-1.3684000,20.00
3922,-1.3688000,60.00
3923,-1.3692000,40.00
3924,-1.3696000,60.00
3925,-1.3700000,20.00
3926,-1.3704000,60.00
3927,-1.3708000,20.00
3928,-1.3712000,60.00
3929,-1.3716000,20.00
3930,-1.3720000,80.00
3931,-1.3724000,40.00
3932,-1.3728000,60.00
3933,-1.3732000,20.00
3934,-1.3736000,60.00
3935,-1.3740000,20.00
3936,-1.3744000,60.00
3937,-1.3748000,20.00
3938,-1.3752000,60.00
3939,-1.3756000,20.00
3940,-1.3760000,60.00
3941,-1.3764000,20.00
3942,-1.3768000,60.00
3943,-1.3772000,20.00
3944,-1.3776000,60.00
3945,-1.3780000,20.00
3946,-1.3784000,60.00
3947,-1.3788000,20.00
3948,-1.3792000,60.00
3949,-1.3796000,20.00
3950,-1.3800000,60.00
3951,-1.3804000,20.00
3952,-1.3808000,60.00
3953,-1.3812000,20.00
3954,-1.3816000,60.00
3955,-1.3820000,20.00
3956,-1.3824000,60.00
3957,-1.3828000,20.00
3958,-1.3832000,60.00
3959,-1.3836000,20.00
3960,-1.3840000,60.00
3961,-1.3844000,20.00
3962,-1.3848000,60.00
3963,-1.3852000,20.00
3964,-1.3856000,60.00
3965,-1.3860000,20.00
3966,-1.3864000,60.00
3967,-1.3868000,20.00
3968,-1.3872000,60.00
3969,-1.3876000,20.00
3970,-1.3880000,60.00
3971,-1.3884000,20.00
3972,-1.3888000,60.00
3973,-1.3892000,20.00
3974,-1.3896000,60.00
3975,-1.3900000,20.00
3976,-1.3904000,60.00
3977,-1.3908000,20.00
3978,-1.3912000,60.00
3979,-1.3916000,20.00
3980,-1.3920000,60.00
3981,-1.3924000,20.00
3982,-1.3928000,60.00
3983,-1.3932000,20.00
3984,-1.3936000,60.00
3985,-1.3940000,20.00
3986,-1.3944000,60.00
3987,-1.3948000,20.00
3988,-1.3952000,60.00
3989,-1.3956000,20.00
3990,-1.3960000,60.00
3991,-1.3964000,20.00
3992,-1.3968000,60.00
3993,-1.3972000,20.00
3994,-1.3976000,60.00
3995,-1.3980000,20.00
3996,-1.3984000,60.00
3997,-1.3988000,20.00
3998,-1.3992000,60.00
3999,-1.3996000,20.00
4000,-1.4000000,60.00
4001,-1.4004000,20.00
4002,-1.4008000,60.00
4003,-1.4012000,20.00
4004,-1.4016000,60.00
4005,-1.4020000,20.00
4006,-1.4024000,60.00
4007,-1.4028000,20.00
4008,-1.4032000,60.00
4009,-1.4036000,20.00
4010,-1.4040000,60.00
4011,-1.4044000,20.00
4012,-1.4048000,60.00
4013,-1.4052000,20.00
4014,-1.4056000,60.00
4015,-1.4060000,20.00
4016,-1.4064000,60.00
4017,-1.4068000,20.00
4018,-1.4072000,60.00
4019,-1.4076000,40.00
4020,-1.4080000,60.00
4021,-1.4084000,20.00
4022,-1.4088000,60.00
4023,-1.4092000,20.00
4024,-1.4096000,60.00
4025,-1.4100000,20.00
4026,-1.4104000,60.00
4027,-1.4108000,20.00
4028,-1.4112000,60.00
4029,-1.4116000,20.00
4030,-1.4120000,60.00
4031,-1.4124000,20.00
4032,-1.4128000,60.00
4033,-1.4132000,20.00
4034,-1.4136000,60.00
4035,-1.4140000,20.00
4036,-1.4144000,60.00
4037,-1.4148000,20.00
4038,-1.4152000,60.00
4039,-1.4156000,0.00
4040,-1.4160000,60.00
4041,-1.4164000,20.00
4042,-1.4168000,60.00
4043,-1.4172000,20.00
4044,-1.4176000,60.00
4045,-1.4180000,20.00
4046,-1.4184000,60.00
4047,-1.4188000,20.00
4048,-1.4192000,80.00
4049,-1.4196000,20.00
4050,-1.4200000,60.00
4051,-1.4204000,20.00
4052,-1.4208000,60.00
4053,-1.4212000,20.00
4054,-1.4216000,60.00
4055,-1.4220000,20.00
4056,-1.4224000,60.00
4057,-1.4228000,0.00
4058,-1.4232000,60.00
4059,-1.4236000,40.00
4060,-1.4240000,60.00
4061,-1.4244000,20.00
4062,-1.4248000,60.00
4063,-1.4252000,40.00
4064,-1.4256000,60.00
4065,-1.4260000,20.00
4066,-1.4264000,60.00
4067,-1.4268000,20.00
4068,-1.4272000,60.00
4069,-1.4276000,20.00
4070,-1.4280000,60.00
4071,-1.4284000,20.00
4072,-1.4288000,60.00
4073,-1.4292000,20.00
4074,-1.4296000,60.00
4075,-1.4300000,20.00
4076,-1.4304000,60.00
4077,-1.4308000,20.00
4078,-1.4312000,60.00
4079,-1.4316000,20.00
4080,-1.4320000,60.00
4081,-1.4324000,20.00
4082,-1.4328000,60.00
4083,-1.4332000,20.00
4084,-1.4336000,80.00
4085,-1.4340000,20.00
4086,-1.4344000,60.00
4087,-1.4348000,20.00
4088,-1.4352000,60.00
4089,-1.4356000,20.00
4090,-1.4360000,60.00
4091,-1.4364000,20.00
4092,-1.4368000,60.00
4093,-1.4372000,20.00
4094,-1.4376000,60.00
4095,-1.4380000,20.00
4096,-1.4384000,60.00
4097,-1.4388000,20.00
4098,-1.4392000,60.00
4099,-1.4396000,20.00
4100,-1.4400000,60.00
4101,-1.4404000,20.00
4102,-1.4408000,60.00
4103,-1.4412000,40.00
4104,-1.4416000,60.00
4105,-1.4420000,40.00
4106,-1.4424000,60.00
4107,-1.4428000,20.00
4108,-1.4432000,60.00
4109,-1.4436000,20.00
4110,-1.4440000,80.00
4111,-1.4444000,20.00
4112,-1.4448000,60.00
4113,-1.4452000,20.00
4114,-1.4456000,60.00
4115,-1.4460000,20.00
4116,-1.4464000,60.00
4117,-1.4468000,20.00
4118,-1.4472000,60.00
4119,-1.4476000,20.00
4120,-1.4480000,60.00
4121,-1.4484000,20.00
4122,-1.4488000,60.00
4123,-1.4492000,20.00
4124,-1.4496000,60.00
4125,-1.4500000,20.00
4126,-1.4504000,60.00
4127,-1.4508000,20.00
4128,-1.4512000,60.00
4129,-1.4516000,20.00
4130,-1.4520000,60.00
4131,-1.4524000,20.00
4132,-1.4528000,60.00
4133,-1.4532000,20.00
4134,-1.4536000,60.00
4135,-1.4540000,20.00
4136,-1.4544000,60.00
4137,-1.4548000,20.00
4138,-1.4552000,60.00
4139,-1.4556000,20.00
4140,-1.4560000,60.00
4141,-1.4564000,20.00
4142,-1.4568000,60.00
4143,-1.4572000,20.00
4144,-1.4576000,60.00
4145,-1.4580000,20.00
4146,-1.4584000,60.00
4147,-1.4588000,20.00
4148,-1.4592000,60.00
4149,-1.4596000,20.00
4150,-1.4600000,60.00
4151,-1.4604000,20.00
4152,-1.4608000,60.00
4153,-1.4612000,20.00
4154,-1.4616000,60.00
4155,-1.4620000,20.00
4156,-1.4624000,60.00
4157,-1.4628000,0.00
4158,-1.4632000,60.00
4159,-1.4636000,20.00
4160,-1.4640000,60.00
4161,-1.4644000,20.00
4162,-1.4648000,60.00
4163,-1.4652000,20.00
4164,-1.4656000,60.00
4165,-1.4660000,20.00
4166,-1.4664000,60.00
4167,-1.4668000,20.00
4168,-1.4672000,60.00
4169,-1.4676000,20.00
4170,-1.4680000,60.00
4171,-1.4684000,20.00
4172,-1.4688000,60.00
4173,-1.4692000,20.00
4174,-1.4696000,60.00
4175,-1.4700000,20.00
4176,-1.4704000,60.00
4177,-1.4708000,20.00
4178,-1.4712000,60.00
4179,-1.4716000,20.00
4180,-1.4720000,60.00
4181,-1.4724000,20.00
4182,-1.4728000,60.00
4183,-1.4732000,20.00
4184,-1.4736000,60.00
4185,-1.4740000,40.00
4186,-1.4744000,60.00
4187,-1.4748000,20.00
4188,-1.4752000,60.00
4189,-1.4756000,20.00
4190,-1.4760000,60.00
4191,-1.4764000,20.00
4192,-1.4768000,60.00
4193,-1.4772000,20.00
4194,-1.4776000,60.00
4195,-1.4780000,20.00
4196,-1.4784000,60.00
4197,-1.4788000,20.00
4198,-1.4792000,60.00
4199,-1.4796000,20.00
4200,-1.4800000,60.00
4201,-1.4804000,20.00
4202,-1.4808000,60.00
4203,-1.4812000,20.00
4204,-1.4816000,60.00
4205,-1.4820000,20.00
4206,-1.4824000,60.00
4207,-1.4828000,20.00
4208,-1.4832000,60.00
4209,-1.4836000,20.00
4210,-1.4840000,60.00
4211,-1.4844000,20.00
4212,-1.4848000,60.00
4213,-1.4852000,40.00
4214,-1.4856000,60.00
4215,-1.4860000,20.00
4216,-1.4864000,60.00
4217,-1.4868000,20.00
4218,-1.4872000,60.00
4219,-1.4876000,20.00
4220,-1.4880000,60.00
4221,-1.4884000,20.00
4222,-1.4888000,60.00
4223,-1.4892000,20.00
4224,-1.4896000,60.00
4225,-1.4900000,20.00
4226,-1.4904000,60.00
4227,-1.4908000,20.00
4228,-1.4912000,60.00
4229,-1.4916000,40.00
4230,-1.4920000,60.00
4231,-1.4924000,20.00
4232,-1.4928000,60.00
4233,-1.4932000,20.00
4234,-1.4936000,60.00
4235,-1.4940000,20.00
4236,-1.4944000,60.00
4237,-1.4948000,20.00
4238,-1.4952000,60.00
4239,-1.4956000,20.00
4240,-1.4960000,60.00
4241,-1.4964000,40.00
4242,-1.4968000,60.00
4243,-1.4972000,20.00
4244,-1.4976000,60.00
4245,-1.4980000,20.00
4246,-1.4984000,60.00
4247,-1.4988000,20.00
4248,-1.4992000,60.00
4249,-1.4996000,20.00
4250,-1.5000000,60.00
4251,-1.5004000,20.00
4252,-1.5008000,60.00
4253,-1.5012000,40.00
4254,-1.5016000,60.00
4255,-1.5020000,20.00
4256,-1.5024000,60.00
4257,-1.5028000,20.00
4258,-1.5032000,60.00
4259,-1.5036000,20.00
4260,-1.5040000,60.00
4261,-1.5044000,20.00
4262,-1.5048000,60.00
4263,-1.5052000,20.00
4264,-1.5056000,60.00
4265,-1.5060000,20.00
4266,-1.5064000,80.00
4267,-1.5068000,20.00
4268,-1.5072000,60.00
4269,-1.5076000,20.00
4270,-1.5080000,60.00
4271,-1.5084000,40.00
4272,-1.5088000,60.00
4273,-1.5092000,20.00
4274,-1.5096000,60.00
4275,-1.5100000,20.00
4276,-1.5104000,60.00
4277,-1.5108000,20.00
4278,-1.5112000,60.00
4279,-1.5116000,20.00
4280,-1.5120000,60.00
4281,-1.5124000,20.00
4282,-1.5128000,60.00
4283,-1.5132000,20.00
4284,-1.5136000,60.00
4285,-1.5140000,20.00
4286,-1.5144000,60.00
4287,-1.5148000,20.00
4288,-1.5152000,60.00
4289,-1.5156000,40.00
4290,-1.5160000,60.00
4291,-1.5164000,20.00
4292,-1.5168000,60.00
4293,-1.5172000,20.00
4294,-1.5176000,60.00
4295,-1.5180000,20.00
4296,-1.5184000,60.00
4297,-1.5188000,20.00
4298,-1.5192000,60.00
4299,-1.5196000,20.00
4300,-1.5200000,60.00
4301,-1.5204000,20.00
4302,-1.5208000,60.00
4303,-1.5212000,20.00
4304,-1.5216000,60.00
4305,-1.5220000,20.00
4306,-1.5224000,60.00
4307,-1.5228000,20.00
4308,-1.5232000,60.00
4309,-1.5236000,20.00
4310,-1.5240000,60.00
4311,-1.5244000,20.00
4312,-1.5248000,60.00
4313,-1.5252000,20.00
4314,-1.5256000,60.00
4315,-1.5260000,40.00
4316,-1.5264000,60.00
4317,-1.5268000,20.00
4318,-1.5272000,60.00
4319,-1.5276000,20.00
4320,-1.5280000,60.00
4321,-1.5284000,20.00
4322,-1.5288000,60.00
4323,-1.5292000,20.00
4324,-1.5296000,60.00
4325,-1.5300000,20.00
4326,-1.5304000,60.00
4327,-1.5308000,20.00
4328,-1.5312000,60.00
4329,-1.5316000,20.00
4330,-1.5320000,60.00
4331,-1.5324000,20.00
4332,-1.5328000,60.00
4333,-1.5332000,20.00
4334,-1.5336000,60.00
4335,-1.5340000,20.00
4336,-1.5344000,60.00
4337,-1.5348000,20.00
4338,-1.5352000,60.00
4339,-1.5356000,20.00
4340,-1.5360000,60.00
4341,-1.5364000,20.00
4342,-1.5368000,60.00
4343,-1.5372000,20.00
4344,-1.5376000,60.00
4345,-1.5380000,20.00
4346,-1.5384000,60.00
4347,-1.5388000,20.00
4348,-1.5392000,60.00
4349,-1.5396000,20.00
4350,-1.5400000,60.00
4351,-1.5404000,20.00
4352,-1.5408000,60.00
4353,-1.5412000,20.00
4354,-1.5416000,60.00
4355,-1.5420000,40.00
4356,-1.5424000,60.00
4357,-1.5428000,20.00
4358,-1.5432000,60.00
4359,-1.5436000,20.00
4360,-1.5440000,60.00
4361,-1.5444000,20.00
4362,-1.5448000,60.00
4363,-1.5452000,20.00
4364,-1.5456000,60.00
4365,-1.5460000,20.00
4366,-1.5464000,60.00
4367,-1.5468000,20.00
4368,-1.5472000,60.00
4369,-1.5476000,20.00
4370,-1.5480000,60.00
4371,-1.5484000,20.00
4372,-1.5488000,60.00
4373,-1.5492000,20.00
4374,-1.5496000,60.00
4375,-1.5500000,20.00
4376,-1.5504000,60.00
4377,-1.5508000,20.00
4378,-1.5512000,60.00
4379,-1.5516000,20.00
4380,-1.5520000,60.00
4381,-1.5524000,20.00
4382,-1.5528000,80.00
4383,-1.5532000,20.00
4384,-1.5536000,60.00
4385,-1.5540000,20.00
4386,-1.5544000,60.00
4387,-1.5548000,20.00
4388,-1.5552000,60.00
4389,-1.5556000,20.00
4390,-1.5560000,60.00
4391,-1.5564000,20.00
4392,-1.5568000,60.00
4393,-1.5572000,0.00
4394,-1.5576000,60.00
4395,-1.5580000,20.00
4396,-1.5584000,60.00
4397,-1.5588000,20.00
4398,-1.5592000,60.00
4399,-1.5596000,20.00
4400,-1.5600000,60.00
4401,-1.5604000,20.00
4402,-1.5608000,60.00
4403,-1.5612000,20.00
4404,-1.5616000,60.00
4405,-1.5620000,20.00
4406,-1.5624000,60.00
4407,-1.5628000,20.00
4408,-1.5632000,60.00
4409,-1.5636000,20.00
4410,-1.5640000,60.00
4411,-1.5644000,20.00
4412,-1.5648000,60.00
4413,-1.5652000,20.00
4414,-1.5656000,60.00
4415,-1.5660000,20.00
4416,-1.5664000,60.00
4417,-1.5668000,20.00
4418,-1.5672000,60.00
4419,-1.5676000,20.00
4420,-1.5680000,60.00
4421,-1.5684000,20.00
4422,-1.5688000,60.00
4423,-1.5692000,20.00
4424,-1.5696000,60.00
4425,-1.5700000,20.00
4426,-1.5704000,60.00
4427,-1.5708000,20.00
4428,-1.5712000,60.00
4429,-1.5716000,20.00
4430,-1.5720000,60.00
4431,-1.5724000,0.00
4432,-1.5728000,60.00
4433,-1.5732000,20.00
4434,-1.5736000,60.00
4435,-1.5740000,20.00
4436,-1.5744000,60.00
4437,-1.5748000,20.00
4438,-1.5752000,60.00
4439,-1.5756000,20.00
4440,-1.5760000,60.00
4441,-1.5764000,20.00
4442,-1.5768000,60.00
4443,-1.5772000,20.00
4444,-1.5776000,60.00
4445,-1.5780000,20.00
4446,-1.5784000,80.00
4447,-1.5788000,20.00
4448,-1.5792000,60.00
4449,-1.5796000,20.00
4450,-1.5800000,60.00
4451,-1.5804000,20.00
4452,-1.5808000,60.00
4453,-1.5812000,20.00
4454,-1.5816000,60.00
4455,-1.5820000,20.00
4456,-1.5824000,60.00
4457,-1.5828000,20.00
4458,-1.5832000,60.00
4459,-1.5836000,20.00
4460,-1.5840000,60.00
4461,-1.5844000,20.00
4462,-1.5848000,60.00
4463,-1.5852000,20.00
4464,-1.5856000,60.00
4465,-1.5860000,20.00
4466,-1.5864000,60.00
4467,-1.5868000,0.00
4468,-1.5872000,60.00
4469,-1.5876000,20.00
4470,-1.5880000,60.00
4471,-1.5884000,20.00
4472,-1.5888000,60.00
4473,-1.5892000,20.00
4474,-1.5896000,60.00
4475,-1.5900000,40.00
4476,-1.5904000,60.00
4477,-1.5908000,20.00
4478,-1.5912000,60.00
4479,-1.5916000,20.00
4480,-1.5920000,60.00
4481,-1.5924000,20.00
4482,-1.5928000,60.00
4483,-1.5932000,20.00
4484,-1.5936000,60.00
4485,-1.5940000,20.00
4486,-1.5944000,60.00
4487,-1.5948000,20.00
4488,-1.5952000,60.00
4489,-1.5956000,40.00
4490,-1.5960000,60.00
4491,-1.5964000,20.00
4492,-1.5968000,60.00
4493,-1.5972000,20.00
4494,-1.5976000,60.00
4495,-1.5980000,20.00
4496,-1.5984000,60.00
4497,-1.5988000,20.00
4498,-1.5992000,60.00
4499,-1.5996000,20.00
4500,-1.6000000,60.00
4501,-1.6004000,20.00
4502,-1.6008000,60.00
4503,-1.6012000,20.00
4504,-1.6016000,60.00
4505,-1.6020000,20.00
4506,-1.6024000,60.00
4507,-1.6028000,20.00
4508,-1.6032000,60.00
4509,-1.6036000,20.00
4510,-1.6040000,60.00
4511,-1.6044000,20.00
4512,-1.6048000,60.00
4513,-1.6052000,20.00
4514,-1.6056000,60.00
4515,-1.6060000,20.00
4516,-1.6064000,60.00
4517,-1.6068000,20.00
4518,-1.6072000,60.00
4519,-1.6076000,20.00
4520,-1.6080000,60.00
4521,-1.6084000,20.00
4522,-1.6088000,60.00
4523,-1.6092000,20.00
4524,-1.6096000,60.00
4525,-1.6100000,20.00
4526,-1.6104000,60.00
4527,-1.6108000,20.00
4528,-1.6112000,60.00
4529,-1.6116000,20.00
4530,-1.6120000,60.00
4531,-1.6124000,20.00
4532,-1.6128000,60.00
4533,-1.6132000,20.00
4534,-1.6136000,60.00
4535,-1.6140000,20.00
4536,-1.6144000,60.00
4537,-1.6148000,20.00
4538,-1.6152000,60.00
4539,-1.6156000,20.00
4540,-1.6160000,60.00
4541,-1.6164000,20.00
4542,-1.6168000,60.00
4543,-1.6172000,20.00
4544,-1.6176000,60.00
4545,-1.6180000,20.00
4546,-1.6184000,60.00
4547,-1.6188000,0.00
4548,-1.6192000,60.00
4549,-1.6196000,20.00
4550,-1.6200000,60.00
4551,-1.6204000,20.00
4552,-1.6208000,60.00
4553,-1.6212000,20.00
4554,-1.6216000,60.00
4555,-1.6220000,20.00
4556,-1.6224000,60.00
4557,-1.6228000,20.00
4558,-1.6232000,60.00
4559,-1.6236000,20.00
4560,-1.6240000,60.00
4561,-1.6244000,20.00
4562,-1.6248000,60.00
4563,-1.6252000,20.00
4564,-1.6256000,60.00
4565,-1.6260000,40.00
4566,-1.6264000,60.00
4567,-1.6268000,20.00
4568,-1.6272000,60.00
4569,-1.6276000,20.00
4570,-1.6280000,60.00
4571,-1.6284000,20.00
4572,-1.6288000,60.00
4573,-1.6292000,40.00
4574,-1.6296000,60.00
4575,-1.6300000,20.00
4576,-1.6304000,60.00
4577,-1.6308000,20.00
4578,-1.6312000,60.00
4579,-1.6316000,20.00
4580,-1.6320000,60.00
4581,-1.6324000,20.00
4582,-1.6328000,60.00
4583,-1.6332000,20.00
4584,-1.6336000,60.00
4585,-1.6340000,20.00
4586,-1.6344000,60.00
4587,-1.6348000,20.00
4588,-1.6352000,60.00
4589,-1.6356000,0.00
4590,-1.6360000,60.00
4591,-1.6364000,20.00
4592,-1.6368000,60.00
4593,-1.6372000,20.00
4594,-1.6376000,60.00
4595,-1.6380000,20.00
4596,-1.6384000,60.00
4597,-1.6388000,20.00
4598,-1.6392000,60.00
4599,-1.6396000,20.00
4600,-1.6400000,60.00
4601,-1.6404000,20.00
4602,-1.6408000,60.00
4603,-1.6412000,20.00
4604,-1.6416000,60.00
4605,-1.6420000,20.00
4606,-1.6424000,60.00
4607,-1.6428000,20.00
4608,-1.6432000,60.00
4609,-1.6436000,20.00
4610,-1.6440000,60.00
4611,-1.6444000,20.00
4612,-1.6448000,60.00
4613,-1.6452000,20.00
4614,-1.6456000,60.00
4615,-1.6460000,20.00
4616,-1.6464000,60.00
4617,-1.6468000,20.00
4618,-1.6472000,60.00
4619,-1.6476000,20.00
4620,-1.6480000,60.00
4621,-1.6484000,20.00
4622,-1.6488000,60.00
4623,-1.6492000,0.00
4624,-1.6496000,60.00
4625,-1.6500000,20.00
4626,-1.6504000,60.00
4627,-1.6508000,20.00
4628,-1.6512000,60.00
4629,-1.6516000,20.00
4630,-1.6520000,60.00
4631,-1.6524000,20.00
4632,-1.6528000,60.00
4633,-1.6532000,20.00
4634,-1.6536000,60.00
4635,-1.6540000,20.00
4636,-1.6544000,60.00
4637,-1.6548000,20.00
4638,-1.6552000,60.00
4639,-1.6556000,20.00
4640,-1.6560000,60.00
4641,-1.6564000,20.00
4642,-1.6568000,60.00
4643,-1.6572000,20.00
4644,-1.6576000,60.00
4645,-1.6580000,20.00
4646,-1.6584000,60.00
4647,-1.6588000,20.00
4648,-1.6592000,60.00
4649,-1.6596000,20.00
4650,-1.6600000,60.00
4651,-1.6604000,20.00
4652,-1.6608000,60.00
4653,-1.6612000,20.00
4654,-1.6616000,60.00
4655,-1.6620000,20.00
4656,-1.6624000,80.00
4657,-1.6628000,20.00
4658,-1.6632000,60.00
4659,-1.6636000,20.00
4660,-1.6640000,60.00
4661,-1.6644000,20.00
4662,-1.6648000,60.00
4663,-1.6652000,0.00
4664,-1.6656000,60.00
4665,-1.6660000,20.00
4666,-1.6664000,80.00
4667,-1.6668000,20.00
4668,-1.6672000,60.00
4669,-1.6676000,20.00
4670,-1.6680000,60.00
4671,-1.6684000,20.00
4672,-1.6688000,60.00
4673,-1.6692000,20.00
4674,-1.6696000,60.00
4675,-1.6700000,20.00
4676,-1.6704000,60.00
4677,-1.6708000,20.00
4678,-1.6712000,60.00
4679,-1.6716000,20.00
4680,-1.6720000,60.00
4681,-1.6724000,20.00
4682,-1.6728000,60.00
4683,-1.6732000,20.00
4684,-1.6736000,60.00
4685,-1.6740000,20.00
4686,-1.6744000,60.00
4687,-1.6748000,20.00
4688,-1.6752000,60.00
4689,-1.6756000,20.00
4690,-1.6760000,60.00
4691,-1.6764000,20.00
4692,-1.6768000,60.00
4693,-1.6772000,20.00
4694,-1.6776000,60.00
4695,-1.6780000,20.00
4696,-1.6784000,60.00
4697,-1.6788000,20.00
4698,-1.6792000,60.00
4699,-1.6796000,20.00
4700,-1.6800000,60.00
4701,-1.6804000,20.00
4702,-1.6808000,60.00
4703,-1.6812000,20.00
4704,-1.6816000,60.00
4705,-1.6820000,20.00
4706,-1.6824000,60.00
4707,-1.6828000,40.00
4708,-1.6832000,60.00
4709,-1.6836000,20.00
4710,-1.6840000,60.00
4711,-1.6844000,40.00
4712,-1.6848000,60.00
4713,-1.6852000,20.00
4714,-1.6856000,60.00
4715,-1.6860000,20.00
4716,-1.6864000,60.00
4717,-1.6868000,20.00
4718,-1.6872000,60.00
4719,-1.6876000,20.00
4720,-1.6880000,60.00
4721,-1.6884000,20.00
4722,-1.6888000,60.00
4723,-1.6892000,20.00
4724,-1.6896000,60.00
4725,-1.6900000,20.00
4726,-1.6904000,60.00
4727,-1.6908000,20.00
4728,-1.6912000,60.00
4729,-1.6916000,20.00
4730,-1.6920000,60.00
4731,-1.6924000,40.00
4732,-1.6928000,60.00
4733,-1.6932000,20.00
4734,-1.6936000,60.00
4735,-1.6940000,20.00
4736,-1.6944000,60.00
4737,-1.6948000,20.00
4738,-1.6952000,60.00
4739,-1.6956000,20.00
4740,-1.6960000,60.00
4741,-1.6964000,20.00
4742,-1.6968000,80.00
4743,-1.6972000,20.00
4744,-1.6976000,60.00
4745,-1.6980000,20.00
4746,-1.6984000,60.00
4747,-1.6988000,20.00
4748,-1.6992000,60.00
4749,-1.6996000,20.00
4750,-1.7000000,60.00
4751,-1.7004000,20.00
4752,-1.7008000,60.00
4753,-1.7012000,20.00
4754,-1.7016000,60.00
4755,-1.7020000,20.00
4756,-1.7024000,60.00
4757,-1.7028000,20.00
4758,-1.7032000,60.00
4759,-1.7036000,20.00
4760,-1.7040000,60.00
4761,-1.7044000,20.00
4762,-1.7048000,60.00
4763,-1.7052000,20.00
4764,-1.7056000,60.00
4765,-1.7060000,20.00
4766,-1.7064000,60.00
4767,-1.7068000,20.00
4768,-1.7072000,60.00
4769,-1.7076000,20.00
4770,-1.7080000,60.00
4771,-1.7084000,20.00
4772,-1.7088000,60.00
4773,-1.7092000,20.00
4774,-1.7096000,60.00
4775,-1.7100000,20.00
4776,-1.7104000,60.00
4777,-1.7108000,20.00
4778,-1.7112000,60.00
4779,-1.7116000,40.00
4780,-1.7120000,60.00
4781,-1.7124000,20.00
4782,-1.7128000,60.00
4783,-1.7132000,40.00
4784,-1.7136000,60.00
4785,-1.7140000,20.00
4786,-1.7144000,60.00
4787,-1.7148000,20.00
4788,-1.7152000,60.00
4789,-1.7156000,20.00
4790,-1.7160000,60.00
4791,-1.7164000,20.00
4792,-1.7168000,60.00
4793,-1.7172000,20.00
4794,-1.7176000,60.00
4795,-1.7180000,20.00
4796,-1.7184000,60.00
4797,-1.7188000,20.00
4798,-1.7192000,60.00
4799,-1.7196000,20.00
4800,-1.7200000,60.00
4801,-1.7204000,20.00
4802,-1.7208000,80.00
4803,-1.7212000,20.00
4804,-1.7216000,60.00
4805,-1.7220000,20.00
4806,-1.7224000,60.00
4807,-1.7228000,20.00
4808,-1.7232000,60.00
4809,-1.7236000,20.00
4810,-1.7240000,60.00
4811,-1.7244000,20.00
4812,-1.7248000,60.00
4813,-1.7252000,20.00
4814,-1.7256000,60.00
4815,-1.7260000,20.00
4816,-1.7264000,60.00
4817,-1.7268000,20.00
4818,-1.7272000,60.00
4819,-1.7276000,20.00
4820,-1.7280000,60.00
4821,-1.7284000,20.00
4822,-1.7288000,60.00
4823,-1.7292000,20.00
4824,-1.7296000,60.00
4825,-1.7300000,20.00
4826,-1.7304000,60.00
4827,-1.7308000,20.00
4828,-1.7312000,80.00
4829,-1.7316000,20.00
4830,-1.7320000,60.00
4831,-1.7324000,20.00
4832,-1.7328000,60.00
4833,-1.7332000,40.00
4834,-1.7336000,60.00
4835,-1.7340000,20.00
4836,-1.7344000,60.00
4837,-1.7348000,0.00
4838,-1.7352000,60.00
4839,-1.7356000,20.00
4840,-1.7360000,60.00
4841,-1.7364000,20.00
4842,-1.7368000,60.00
4843,-1.7372000,20.00
4844,-1.7376000,60.00
4845,-1.7380000,20.00
4846,-1.7384000,60.00
4847,-1.7388000,20.00
4848,-1.7392000,60.00
4849,-1.7396000,20.00
4850,-1.7400000,60.00
4851,-1.7404000,20.00
4852,-1.7408000,60.00
4853,-1.7412000,20.00
4854,-1.7416000,60.00
4855,-1.7420000,20.00
4856,-1.7424000,60.00
4857,-1.7428000,20.00
4858,-1.7432000,60.00
4859,-1.7436000,20.00
4860,-1.7440000,60.00
4861,-1.7444000,20.00
4862,-1.7448000,60.00
4863,-1.7452000,20.00
4864,-1.7456000,60.00
4865,-1.7460000,20.00
4866,-1.7464000,60.00
4867,-1.7468000,20.00
4868,-1.7472000,60.00
4869,-1.7476000,20.00
4870,-1.7480000,60.00
4871,-1.7484000,20.00
4872,-1.7488000,60.00
4873,-1.7492000,20.00
4874,-1.7496000,60.00
4875,-1.7500000,20.00
4876,-1.7504000,60.00
4877,-1.7508000,20.00
4878,-1.7512000,60.00
4879,-1.7516000,20.00
4880,-1.7520000,60.00
4881,-1.7524000,20.00
4882,-1.7528000,60.00
4883,-1.7532000,20.00
4884,-1.7536000,60.00
4885,-1.7540000,20.00
4886,-1.7544000,60.00
4887,-1.7548000,20.00
4888,-1.7552000,60.00
4889,-1.7556000,20.00
4890,-1.7560000,80.00
4891,-1.7564000,20.00
4892,-1.7568000,60.00
4893,-1.7572000,20.00
4894,-1.7576000,60.00
4895,-1.7580000,20.00
4896,-1.7584000,60.00
4897,-1.7588000,20.00
4898,-1.7592000,60.00
4899,-1.7596000,20.00
4900,-1.7600000,60.00
4901,-1.7604000,20.00
4902,-1.7608000,60.00
4903,-1.7612000,0.00
4904,-1.7616000,60.00
4905,-1.7620000,20.00
4906,-1.7624000,60.00
4907,-1.7628000,20.00
4908,-1.7632000,60.00
4909,-1.7636000,20.00
4910,-1.7640000,60.00
4911,-1.7644000,20.00
4912,-1.7648000,60.00
4913,-1.7652000,20.00
4914,-1.7656000,60.00
4915,-1.7660000,20.00
4916,-1.7664000,60.00
4917,-1.7668000,20.00
4918,-1.7672000,60.00
4919,-1.7676000,20.00
4920,-1.7680000,60.00
4921,-1.7684000,20.00
4922,-1.7688000,60.00
4923,-1.7692000,20.00
4924,-1.7696000,60.00
4925,-1.7700000,20.00
4926,-1.7704000,60.00
4927,-1.7708000,20.00
4928,-1.7712000,60.00
4929,-1.7716000,40.00
4930,-1.7720000,60.00
4931,-1.7724000,20.00
4932,-1.7728000,60.00
4933,-1.7732000,20.00
4934,-1.7736000,60.00
4935,-1.7740000,20.00
4936,-1.7744000,60.00
4937,-1.7748000,20.00
4938,-1.7752000,60.00
4939,-1.7756000,20.00
4940,-1.7760000,60.00
4941,-1.7764000,20.00
4942,-1.7768000,80.00
4943,-1.7772000,20.00
4944,-1.7776000,60.00
4945,-1.7780000,20.00
4946,-1.7784000,60.00
4947,-1.7788000,20.00
4948,-1.7792000,60.00
4949,-1.7796000,20.00
4950,-1.7800000,60.00
4951,-1.7804000,20.00
4952,-1.7808000,60.00
4953,-1.7812000,40.00
4954,-1.7816000,60.00
4955,-1.7820000,20.00
4956,-1.7824000,60.00
4957,-1.7828000,20.00
4958,-1.7832000,60.00
4959,-1.7836000,20.00
4960,-1.7840000,60.00
4961,-1.7844000,20.00
4962,-1.7848000,60.00
4963,-1.7852000,20.00
4964,-1.7856000,60.00
4965,-1.7860000,20.00
4966,-1.7864000,60.00
4967,-1.7868000,0.00
4968,-1.7872000,60.00
4969,-1.7876000,20.00
4970,-1.7880000,60.00
4971,-1.7884000,20.00
4972,-1.7888000,60.00
4973,-1.7892000,20.00
4974,-1.7896000,60.00
4975,-1.7900000,20.00
4976,-1.7904000,60.00
4977,-1.7908000,40.00
4978,-1.7912000,60.00
4979,-1.7916000,20.00
4980,-1.7920000,60.00
4981,-1.7924000,20.00
4982,-1.7928000,60.00
4983,-1.7932000,20.00
4984,-1.7936000,60.00
4985,-1.7940000,20.00
4986,-1.7944000,60.00
4987,-1.7948000,20.00
4988,-1.7952000,60.00
4989,-1.7956000,40.00
4990,-1.7960000,60.00
4991,-1.7964000,20.00
4992,-1.7968000,60.00
4993,-1.7972000,40.00
4994,-1.7976000,60.00
4995,-1.7980000,20.00
4996,-1.7984000,60.00
4997,-1.7988000,20.00
4998,-1.7992000,60.00
4999,-1.7996000,40.00
